* Sea-Bird SBE19plus Data File:
* FileName = C:\Users\Steve Constant\Desktop\CHRP2017\CTD\raw\chp32017018.hex
* Software Version 1.59
* Temperature SN =  6337
* Conductivity SN =  6337
* System UpLoad Time = May 26 2017 12:28:40
* ds
* SBE 19plus V 2.5.2  SERIAL NO. 6337    26 May 2017 08:26:09
* vbatt = 12.1, vlith =  8.2, ioper =  61.3 ma, ipump =  48.3 ma,
* iext01 =   5.8 ma, iext2345 =  86.7 ma
* status = not logging
* number of scans to average = 1
* samples = 300534, free = 2560254, casts = 22
* mode = profile, minimum cond freq = 3154, pump delay = 40 sec
* autorun = no, ignore magnetic switch = no
* battery type = alkaline, battery cutoff =  7.5 volts
* pressure sensor = strain gauge, range = 160.0
* SBE 38 = no, WETLABS = no, OPTODE = no, SBE63 = no, Gas Tension Device = no
* Ext Volt 0 = yes, Ext Volt 1 = yes
* Ext Volt 2 = yes, Ext Volt 3 = yes
* Ext Volt 4 = yes, Ext Volt 5 = yes
* echo characters = yes
* output format = raw HEX

* S>
*
* SBE 19plus V 2.5.2  SERIAL NO. 6337    26 May 2017 08:26:47
* temperature:  13-Jan-17
*     TA0 = 1.295807e-03
*     TA1 = 2.588888e-04
*     TA2 = 9.706836e-08
*     TA3 = 1.382757e-07
*     TOFFSET = 0.000000e+00
* conductivity:  13-Jan-17
*     G = -1.015047e+00
*     H = 1.449340e-01
*     I = -4.359138e-04
*     J = 5.256769e-05
*     CPCOR = -9.570000e-08
*     CTCOR = 3.250000e-06
*     CSLOPE = 1.000000e+00
* pressure S/N = 2882551, range = 160 psia:  11-Jan-17
*     PA0 = -1.431544e-01
*     PA1 = 4.887645e-04
*     PA2 = -6.439018e-12
*     PTCA0 = 5.240819e+05
*     PTCA1 = -1.723854e+01
*     PTCA2 = 1.164354e-01
*     PTCB0 = 2.491288e+01
*     PTCB1 = -1.025000e-03
*     PTCB2 = 0.000000e+00
*     PTEMPA0 = -6.474687e+01
*     PTEMPA1 = 5.145625e+01
*     PTEMPA2 = -2.579592e-01
*     POFFSET = 0.000000e+00
* volt 0: offset = -4.766105e-02, slope = 1.249330e+00
* volt 1: offset = -4.904947e-02, slope = 1.248985e+00
* volt 2: offset = -4.772842e-02, slope = 1.248965e+00
* volt 3: offset = -4.803053e-02, slope = 1.249328e+00
* volt 4: offset = -4.743158e-02, slope = 1.248557e+00
* volt 5: offset = -4.724737e-02, slope = 1.251092e+00
*     EXTFREQSF = 9.999918e-01
* dh
* cast  18 23 May 2017 10:11:44 samples 293240 to 294534, avg = 1, stop = mag switch

* S>
# nquan = 12
# nvalues = 820                                   
# units = specified
# name 0 = depFM: Depth [fresh water, m]
# name 1 = tv290C: Temperature [ITS-90, deg C]
# name 2 = c0uS/cm: Conductivity [uS/cm]
# name 3 = specc: Specific Conductance [uS/cm]
# name 4 = sbeox0Mg/L: Oxygen, SBE 43 [mg/l]
# name 5 = sbeox0PS: Oxygen, SBE 43 [% saturation]
# name 6 = par: PAR/Irradiance, Biospherical/Licor
# name 7 = CStarAt0: Beam Attenuation, WET Labs C-Star [1/m]
# name 8 = CStarTr0: Beam Transmission, WET Labs C-Star [%]
# name 9 = chloroflTC0: Chlorophyll, Turner Cyclops [ug/l]
# name 10 = phycyflTC0: Phycocyanin, Turner Cyclops [RFU]
# name 11 = flag:  0.000e+00
# span 0 =     -0.275,     16.364                 
# span 1 =    13.0955,    20.4003                 
# span 2 =   6.385186, 236.824116                 
# span 3 =      7.183,    298.491                 
# span 4 =    6.20260,    9.38949                 
# span 5 =   62.84521,   92.86357                 
# span 6 = 6.4096e-01, 4.7676e+03                 
# span 7 =     0.1786,     9.2496                 
# span 8 =     9.9024,    95.6331                 
# span 9 =     0.0000,     2.7253                 
# span 10 =     0.0000,     3.4415                
# span 11 = 0.0000e+00, 0.0000e+00                
# interval = seconds: 0.25
# start_time = May 23 2017 10:11:44 [Instrument's time stamp, header]
# bad_flag = -9.990e-29
# <Sensors count="9" >
#   <sensor Channel="1" >
#     <!-- Count, Temperature -->
#     <TemperatureSensor SensorID="58" >
#       <SerialNumber>6337</SerialNumber>
#       <CalibrationDate>13-Jan-17</CalibrationDate>
#       <A0>1.29580686e-003</A0>
#       <A1>2.58888790e-004</A1>
#       <A2>9.70683569e-008</A2>
#       <A3>1.38275720e-007</A3>
#       <Slope>1.00000000</Slope>
#       <Offset>0.0000</Offset>
#     </TemperatureSensor>
#   </sensor>
#   <sensor Channel="2" >
#     <!-- Frequency 0, Conductivity -->
#     <ConductivitySensor SensorID="3" >
#       <SerialNumber>6337</SerialNumber>
#       <CalibrationDate>13-Jan-17</CalibrationDate>
#       <UseG_J>1</UseG_J>
#       <!-- Cell const and series R are applicable only for wide range sensors. -->
#       <SeriesR>0.0000</SeriesR>
#       <CellConst>2000.0000</CellConst>
#       <ConductivityType>0</ConductivityType>
#       <Coefficients equation="0" >
#         <A>0.00000000e+000</A>
#         <B>0.00000000e+000</B>
#         <C>0.00000000e+000</C>
#         <D>0.00000000e+000</D>
#         <M>0.0</M>
#         <CPcor>-9.57000000e-008</CPcor>
#       </Coefficients>
#       <Coefficients equation="1" >
#         <G>-1.01504657e+000</G>
#         <H>1.44933984e-001</H>
#         <I>-4.35913838e-004</I>
#         <J>5.25676850e-005</J>
#         <CPcor>-9.57000000e-008</CPcor>
#         <CTcor>3.2500e-006</CTcor>
#         <!-- WBOTC not applicable unless ConductivityType = 1. -->
#         <WBOTC>0.00000000e+000</WBOTC>
#       </Coefficients>
#       <Slope>1.00000000</Slope>
#       <Offset>0.00000</Offset>
#     </ConductivitySensor>
#   </sensor>
#   <sensor Channel="3" >
#     <!-- Count, Pressure, Strain Gauge -->
#     <PressureSensor SensorID="46" >
#       <SerialNumber>6337</SerialNumber>
#       <CalibrationDate>11-Jan-17</CalibrationDate>
#       <PA0>-1.43154376e-001</PA0>
#       <PA1>4.88764480e-004</PA1>
#       <PA2>-6.43901847e-012</PA2>
#       <PTEMPA0>-6.47468750e+001</PTEMPA0>
#       <PTEMPA1>5.14562526e+001</PTEMPA1>
#       <PTEMPA2>-2.57959185e-001</PTEMPA2>
#       <PTCA0>5.24081949e+005</PTCA0>
#       <PTCA1>-1.72385379e+001</PTCA1>
#       <PTCA2>1.16435406e-001</PTCA2>
#       <PTCB0>2.49128750e+001</PTCB0>
#       <PTCB1>-1.02500000e-003</PTCB1>
#       <PTCB2>0.00000000e+000</PTCB2>
#       <Offset>0.000000</Offset>
#     </PressureSensor>
#   </sensor>
#   <sensor Channel="4" >
#     <!-- A/D voltage 0, Oxygen, SBE 43 -->
#     <OxygenSensor SensorID="38" >
#       <SerialNumber>2361</SerialNumber>
#       <CalibrationDate>20-Jan-17</CalibrationDate>
#       <Use2007Equation>1</Use2007Equation>
#       <CalibrationCoefficients equation="0" >
#         <!-- Coefficients for Owens-Millard equation. -->
#         <Boc>0.0000</Boc>
#         <Soc>0.0000e+000</Soc>
#         <offset>0.0000</offset>
#         <Pcor>0.00e+000</Pcor>
#         <Tcor>0.0000</Tcor>
#         <Tau>0.0</Tau>
#       </CalibrationCoefficients>
#       <CalibrationCoefficients equation="1" >
#         <!-- Coefficients for Sea-Bird equation - SBE calibration in 2007 and later. -->
#         <Soc>3.9698e-001</Soc>
#         <offset>-0.4986</offset>
#         <A>-3.9823e-003</A>
#         <B> 2.4447e-004</B>
#         <C>-3.3613e-006</C>
#         <D0> 2.5826e+000</D0>
#         <D1> 1.92634e-004</D1>
#         <D2>-4.64803e-002</D2>
#         <E> 3.6000e-002</E>
#         <Tau20> 1.0800</Tau20>
#         <H1>-3.3000e-002</H1>
#         <H2> 5.0000e+003</H2>
#         <H3> 1.4500e+003</H3>
#       </CalibrationCoefficients>
#     </OxygenSensor>
#   </sensor>
#   <sensor Channel="5" >
#     <!-- A/D voltage 1, Free -->
#   </sensor>
#   <sensor Channel="6" >
#     <!-- A/D voltage 2, PAR/Irradiance, Biospherical/Licor -->
#     <PAR_BiosphericalLicorChelseaSensor SensorID="42" >
#       <SerialNumber>70234</SerialNumber>
#       <CalibrationDate>11/29/16</CalibrationDate>
#       <M>1.00000000</M>
#       <B>0.00000000</B>
#       <CalibrationConstant>10917030568.00000000</CalibrationConstant>
#       <Multiplier>1.00000000</Multiplier>
#       <Offset>-0.09353959</Offset>
#     </PAR_BiosphericalLicorChelseaSensor>
#   </sensor>
#   <sensor Channel="7" >
#     <!-- A/D voltage 3, Transmissometer, WET Labs C-Star -->
#     <WET_LabsCStar SensorID="71" >
#       <SerialNumber>CST-484PR</SerialNumber>
#       <CalibrationDate>12/23/16</CalibrationDate>
#       <M>21.5610</M>
#       <B>-1.2721</B>
#       <PathLength>0.250</PathLength>
#     </WET_LabsCStar>
#   </sensor>
#   <sensor Channel="8" >
#     <!-- A/D voltage 4, Fluorometer, Turner Cyclops -->
#     <Fluorometer SensorID="68" >
#       <SerialNumber></SerialNumber>
#       <CalibrationDate></CalibrationDate>
#       <ScaleFactor>1.00000000e+000</ScaleFactor>
#       <Offset>0.00000000e+000</Offset>
#       <!-- 1 = C, Chlorophyll -->
#       <!-- 2 = R, Rhodamine -->
#       <!-- 3 = F, Fluorescein -->
#       <!-- 4 = P, Phycocyanin -->
#       <!-- 5 = E, Phycoerythrin -->
#       <!-- 6 = U, CDOM -->
#       <!-- 7 = O, CrudeOil -->
#       <!-- 8 = B, OpticalBrightness -->
#       <!-- 9 = T, Turbidity -->
#       <!-- 10 = G, Refined Fuels -->
#       <MeasuredParameter>4</MeasuredParameter>
#     </Fluorometer>
#   </sensor>
#   <sensor Channel="9" >
#     <!-- A/D voltage 5, Fluorometer, Turner Cyclops, 2 -->
#     <Fluorometer SensorID="68" >
#       <SerialNumber></SerialNumber>
#       <CalibrationDate></CalibrationDate>
#       <ScaleFactor>1.00000000e+000</ScaleFactor>
#       <Offset>0.00000000e+000</Offset>
#       <!-- 1 = C, Chlorophyll -->
#       <!-- 2 = R, Rhodamine -->
#       <!-- 3 = F, Fluorescein -->
#       <!-- 4 = P, Phycocyanin -->
#       <!-- 5 = E, Phycoerythrin -->
#       <!-- 6 = U, CDOM -->
#       <!-- 7 = O, CrudeOil -->
#       <!-- 8 = B, OpticalBrightness -->
#       <!-- 9 = T, Turbidity -->
#       <!-- 10 = G, Refined Fuels -->
#       <MeasuredParameter>1</MeasuredParameter>
#     </Fluorometer>
#   </sensor>
# </Sensors>
# datcnv_date = May 26 2017 13:03:38, 7.21d [datcnv_vars = 11]
# datcnv_in = C:\Users\Steve Constant\Desktop\CHRP2017\CTD\raw\CHRP5.hex C:\Users\Steve Constant\Desktop\CHRP2017\CTD\raw\SBE19plusV2_63372017.xmlcon
# datcnv_skipover = 0
# datcnv_ox_hysteresis_correction = yes
# datcnv_ox_tau_correction = yes
# file_type = ascii
*END*
     -0.272    20.3810  10.683744     11.770    7.77805   86.19965 1.1319e+03     0.2930    92.9370     0.0733     0.0354  0.000e+00
     -0.272    20.3417  11.280842     12.438    7.78526   86.21281 1.1159e+03     0.1786    95.6331     0.0832     0.0327  0.000e+00
     -0.272    20.3071  11.191278     12.349    7.79597   86.27233 1.1065e+03     0.2326    94.3500     0.0776     0.0354  0.000e+00
     -0.272    20.2677  11.042004     12.195    7.80646   86.32107 1.1018e+03     0.3127    92.4813     0.0655     0.0324  0.000e+00
     -0.273    20.2262  11.221136     12.404    7.81819   86.37986 1.1402e+03     0.3244    92.2099     0.0619     0.0376  0.000e+00
     -0.272    20.1898  11.907819     13.174    7.82167   86.35609 2.3602e+03     0.2930    92.9370     0.0581     0.0282  0.000e+00
     -0.272    20.1534  12.415382     13.747    7.82830   86.36711 1.4595e+03     0.2717    93.4321     0.0538     0.0282  0.000e+00
     -0.273    20.1034  12.922959     14.324    7.83815   86.39025 1.2657e+03     0.2769    93.3120     0.0427     0.0305  0.000e+00
     -0.273    20.0456  13.400690     14.873    7.84818   86.40173 1.2478e+03     0.2888    93.0340     0.0453     0.0366  0.000e+00
     -0.272    19.9922  14.117307     15.687    7.85600   86.39622 1.2626e+03     0.2923    92.9534     0.0064     0.0414  0.000e+00
     -0.273    19.9482  14.654787     16.300    7.86070   86.37252 4.5499e+03     0.2884    93.0439     0.0047     0.0423  0.000e+00
     -0.273    19.8986  13.788860     15.354    7.87167   86.40751 4.5077e+03     0.2845    93.1344     0.0253     0.0417  0.000e+00
     -0.273    19.8437  13.221549     14.740    7.87962   86.40015 2.6776e+03     0.2855    93.1114     0.0359     0.0330  0.000e+00
     -0.273    19.7886  12.713969     14.192    7.89691   86.49465 8.6128e+02     0.2872    93.0719     0.0420     0.0333  0.000e+00
     -0.273    19.7450  12.415399     13.872    7.90235   86.47882 1.1366e+03     0.2886    93.0390     0.0411     0.0404  0.000e+00
     -0.272    19.7201  12.116832     13.546    7.90789   86.49637 1.1218e+03     0.2885    93.0406     0.6326     0.0401  0.000e+00
     -0.273    19.6887  11.459999     12.821    7.91318   86.49987 4.1330e+03     0.2869    93.0785     1.3475     0.0368  0.000e+00
     -0.272    19.6338  10.862898     12.168    7.91920   86.47080 4.3766e+03     0.2866    93.0850     1.8632     0.0298  0.000e+00
     -0.272    19.5692  10.295668     11.549    7.92653   86.43900 4.3836e+03     0.2869    93.0785     2.2232     0.0352  0.000e+00
     -0.272    19.5049   9.788160     10.996    7.93394   86.40846 4.3782e+03     0.2861    93.0965     2.4654     0.0346  0.000e+00
     -0.272    19.4419   9.340369     10.507    7.93866   86.35056 4.3636e+03     0.2864    93.0900     2.6452     0.0262  0.000e+00
     -0.273    19.3856   9.131405     10.285    7.94924   86.36796 4.3636e+03     0.2857    93.1064     2.7253     0.0240  0.000e+00
     -0.273    19.3337   8.713479      9.826    7.95938   86.38805 4.3751e+03     0.2863    93.0933     2.5731     0.0291  0.000e+00
     -0.272    19.2895   9.071703     10.240    7.96500   86.37231 4.3859e+03     0.2864    93.0900     1.9808     0.0334  0.000e+00
     -0.273    19.2565  10.534511     11.900    7.97561   86.43028 4.3967e+03     0.2862    93.0949     2.5805     0.0337  0.000e+00
     -0.273    19.2366  13.102143     14.808    7.98645   86.51377 4.3697e+03     0.2861    93.0965     2.5908     0.0285  0.000e+00
     -0.273    19.2150  14.654822     16.570    7.99717   86.59265 3.9499e+03     0.2864    93.0900     2.6626     0.0261  0.000e+00
     -0.273    19.1791  14.923569     16.888    8.00748   86.64162 1.1034e+03     0.2866    93.0867     2.1993     0.0275  0.000e+00
     -0.273    19.1371  15.043014     17.039    8.01959   86.69935 9.9983e+02     0.2861    93.0965     1.4923     0.0334  0.000e+00
     -0.274    19.0994  15.252043     17.291    8.03040   86.75026 4.2494e+03     0.2854    93.1130     0.9673     0.0343  0.000e+00
     -0.273    19.0680  14.863853     16.863    8.03507   86.74583 4.4339e+03     0.2858    93.1031     0.6211     0.0314  0.000e+00
     -0.274    19.0407  14.206930     16.128    8.04039   86.75527 4.5022e+03     0.2848    93.1278     0.3882     0.0337  0.000e+00
     -0.274    19.0160  13.550028     15.391    8.03968   86.70433 4.5173e+03     0.2856    93.1081     0.2076     0.0317  0.000e+00
     -0.273    18.9921  12.923006     14.686    8.03713   86.63471 1.2345e+03     0.2854    93.1130     0.1389     0.0257  0.000e+00
     -0.273    18.9766  12.475144     14.182    8.04225   86.66264 1.2606e+03     0.2856    93.1097     0.0990     0.0267  0.000e+00
     -0.274    18.9689  12.773718     14.524    8.03821   86.60576 1.3179e+03     0.2854    93.1146     0.0680     0.0297  0.000e+00
     -0.273    18.9530  12.923007     14.699    8.04344   86.63434 1.2360e+03     0.2851    93.1196     0.0478     0.0330  0.000e+00
     -0.274    18.9419  13.191730     15.009    8.04456   86.62706 1.0679e+03     0.2852    93.1179     0.0383     0.0378  0.000e+00
     -0.274    18.9348  13.729185     15.623    8.04499   86.61932 1.0370e+03     0.2858    93.1048     0.6889     0.0426  0.000e+00
     -0.274    18.9387  14.087496     16.029    8.04538   86.63046 1.0289e+03     0.2858    93.1031     1.2329     0.0391  0.000e+00
     -0.273    18.9558  13.639607     15.514    8.04658   86.67327 1.0449e+03     0.2862    93.0949     1.1315     0.0472  0.000e+00
     -0.273    18.9805  13.221586     15.030    8.04581   86.70797 1.0569e+03     0.2856    93.1097     1.3922     0.0404  0.000e+00
     -0.274    19.0057  12.624429     14.343    8.04373   86.72957 1.0770e+03     0.2862    93.0949     1.8511     0.0342  0.000e+00
     -0.274    19.0280  11.848151     13.454    8.04419   86.77348 1.0755e+03     0.2859    93.1015     1.6747     0.0264  0.000e+00
     -0.274    19.0472  11.848150     13.448    8.04979   86.86756 1.0865e+03     0.2857    93.1064     1.1787     0.0333  0.000e+00
     -0.274    19.0619  11.340600     12.868    8.05306   86.92849 1.1327e+03     0.2856    93.1081     0.7723     0.0200  0.000e+00
     -0.274    19.0751  10.594226     12.017    8.05532   86.97597 1.1548e+03     0.2861    93.0965     0.4942     0.0000  0.000e+00
     -0.273    19.0848  10.027000     11.371    8.05913   87.03394 1.1574e+03     0.2861    93.0965     0.3168     0.0000  0.000e+00
     -0.273    19.0860   9.728467     11.032    8.06454   87.09446 1.1226e+03     0.2860    93.0998     0.2055     0.0000  0.000e+00
     -0.273    19.0851   9.220970     10.457    8.07079   87.16014 1.1147e+03     0.2858    93.1031     0.1431     0.0000  0.000e+00
     -0.273    19.0755   8.623932      9.782    8.07711   87.21136 1.1271e+03     0.2847    93.1294     0.1044     0.0000  0.000e+00
     -0.273    19.0664   8.355271      9.479    8.08703   87.30244 1.1210e+03     0.2854    93.1130     0.0791     0.0051  0.000e+00
     -0.273    19.0694   8.026911      9.106    8.09384   87.38119 1.1339e+03     0.2856    93.1097     0.0610     0.0000  0.000e+00
     -0.274    19.0926   7.788107      8.831    8.09374   87.42097 1.1116e+03     0.2861    93.0965     0.0522     0.0000  0.000e+00
     -0.273    19.1255   7.519456      8.520    8.09216   87.46186 1.0674e+03     0.2854    93.1130     0.0493     0.0000  0.000e+00
     -0.273    19.1747   7.340356      8.307    8.09606   87.59071 1.0445e+03     0.2859    93.1015     0.0452     0.0063  0.000e+00
     -0.273    19.2298   7.131409      8.061    8.09111   87.63421 1.0467e+03     0.2851    93.1212     0.0410     0.0194  0.000e+00
     -0.273    19.2793   6.952312      7.850    8.08803   87.68815 8.3213e+02     0.2857    93.1064     0.0353     0.0308  0.000e+00
     -0.272    19.3224   6.743369      7.606    8.08282   87.70744 7.8912e+02     0.2858    93.1048     0.0347     0.0265  0.000e+00
     -0.272    19.3623   6.653823      7.499    8.08136   87.76189 7.7948e+02     0.2856    93.1097     0.0359     0.0256  0.000e+00
     -0.273    19.4006   6.534428      7.358    8.07977   87.81216 8.1077e+02     0.2863    93.0933     0.0393     0.0233  0.000e+00
     -0.273    19.4413   6.385186      7.183    8.07658   87.84914 8.4613e+02     0.2856    93.1097     0.0390     0.0244  0.000e+00
     -0.272    19.4800   6.415033      7.210    8.07191   87.86637 8.1720e+02     0.2856    93.1097     0.0378     0.0512  0.000e+00
     -0.273    19.5147   6.534425      7.339    8.06617   87.86494 8.2123e+02     0.2857    93.1064     0.0376     0.0426  0.000e+00
     -0.273    19.5454   7.131401      8.004    8.06608   87.91816 8.1405e+02     0.2854    93.1130     0.0366     0.0000  0.000e+00
     -0.273    19.5851   7.788094      8.733    8.05842   87.90464 7.6873e+02     0.2860    93.0998     0.0362     0.0000  0.000e+00
     -0.273    19.6337   8.026896      8.991    8.05355   87.93699 8.1677e+02     0.2865    93.0883     0.0388     0.0000  0.000e+00
     -0.272    19.6732   8.564213      9.584    8.04839   87.95014 8.2369e+02     0.2871    93.0735     0.0382     0.0000  0.000e+00
     -0.273    19.7027   8.713469      9.745    8.04255   87.93807 7.7538e+02     0.2875    93.0636     0.0373     0.0000  0.000e+00
     -0.272    19.7252   8.713468      9.740    8.04060   87.95626 7.8222e+02     0.2874    93.0669     0.0369     0.0000  0.000e+00
     -0.272    19.7462   8.773171      9.802    8.04238   88.01260 7.6590e+02     0.2884    93.0439     0.0388     0.0000  0.000e+00
     -0.272    19.7708   8.773170      9.797    8.03798   88.00761 7.6107e+02     0.2884    93.0439     0.0388     0.0000  0.000e+00
     -0.273    19.7955   8.773170      9.791    8.03602   88.02967 7.7198e+02     0.2882    93.0488     0.0394     0.0198  0.000e+00
     -0.272    19.8193   8.892576      9.919    8.03307   88.03906 7.6860e+02     0.2890    93.0291     0.0381     0.0526  0.000e+00
     -0.273    19.8419   8.892575      9.914    8.03354   88.08382 7.9623e+02     0.2884    93.0439     0.0378     0.0575  0.000e+00
     -0.273    19.8637   9.370209     10.442    8.02625   88.04215 8.1692e+02     0.2883    93.0472     0.0354     0.0418  0.000e+00
     -0.273    19.8850  10.086681     11.235    8.02511   88.06719 8.2775e+02     0.2877    93.0604     0.0325     0.0409  0.000e+00
     -0.273    19.9057  10.385219     11.562    8.02528   88.10546 9.3001e+02     0.2868    93.0817     0.0311     0.7489  0.000e+00
     -0.273    19.9262  10.474780     11.657    8.01875   88.06961 1.1102e+03     0.2869    93.0785     0.0307     1.1128  0.000e+00
     -0.274    19.9454  10.862887     12.083    8.01471   88.05897 1.1660e+03     0.2868    93.0817     0.0261     1.0688  0.000e+00
     -0.274    19.9639  10.683759     11.879    8.01182   88.05958 1.2291e+03     0.2868    93.0817     0.0000     0.8413  0.000e+00
     -0.274    19.9743  10.833031     12.042    8.01269   88.08734 1.4765e+03     0.2860    93.0998     0.0000     0.5682  0.000e+00
     -0.274    19.9805  10.833031     12.041    8.00606   88.02531 4.5595e+03     0.2866    93.0850     0.0000     0.3574  0.000e+00
     -0.273    19.9959  10.743467     11.937    8.00931   88.08806 4.5435e+03     0.2878    93.0571     0.0000     0.0892  0.000e+00
     -0.273    20.0082  10.773321     11.967    8.00665   88.08026 1.6450e+03     0.2877    93.0604     0.0000     0.0000  0.000e+00
     -0.274    20.0122  10.653903     11.833    8.00831   88.10557 1.3486e+03     0.2870    93.0768     0.0000     0.0000  0.000e+00
     -0.274    20.0231  10.594194     11.764    8.01140   88.15867 1.3807e+03     0.2861    93.0965     0.0000     0.0266  0.000e+00
     -0.274    20.0389  10.474776     11.627    8.00988   88.16953 1.3708e+03     0.2863    93.0916     0.0000     0.0463  0.000e+00
     -0.274    20.0409  10.385214     11.527    8.01417   88.22031 1.4101e+03     0.2858    93.1031     0.0000     0.0700  0.000e+00
     -0.274    20.0428  10.355360     11.494    8.01790   88.26465 1.3958e+03     0.2856    93.1081     0.0000     0.0000  0.000e+00
     -0.274    20.0567  10.026969     11.126    8.01461   88.25266 1.4049e+03     0.2853    93.1163     0.0000     0.0644  0.000e+00
     -0.275    20.0732  10.146382     11.254    8.01631   88.30044 1.4859e+03     0.2861    93.0982     0.0135     0.5563  0.000e+00
     -0.274    20.0898  10.176236     11.283    8.01440   88.30837 1.4708e+03     0.2863    93.0933     0.0317     0.7063  0.000e+00
     -0.274    20.1116   9.967260     11.046    8.00935   88.29089 1.5269e+03     0.2858    93.1031     0.0472     1.1931  0.000e+00
     -0.275    20.1320   9.847846     10.909    8.00509   88.27963 2.1523e+03     0.2862    93.0949     0.0555     2.4860  0.000e+00
     -0.275    20.1481   9.847846     10.905    8.00306   88.28535 2.3553e+03     0.2865    93.0883     0.0000     3.4415  0.000e+00
     -0.274    20.1602   9.877699     10.935    7.99985   88.27114 2.8958e+03     0.2852    93.1179     0.0330     3.3522  0.000e+00
     -0.274    20.1683   9.847845     10.900    7.99187   88.19734 3.0643e+03     0.2858    93.1048     0.0000     2.4392  0.000e+00
     -0.274    20.1726   9.728433     10.767    7.99382   88.22633 4.6986e+03     0.2858    93.1031     0.0000     1.6051  0.000e+00
     -0.274    20.1667   9.728433     10.768    7.99102   88.18507 4.7359e+03     0.2860    93.0998     0.0689     1.0639  0.000e+00
     -0.274    20.1595   9.668727     10.704    7.99492   88.21546 4.7342e+03     0.2858    93.1031     0.1283     0.6685  0.000e+00
     -0.275    20.1514   9.668727     10.706    7.99522   88.20474 4.7201e+03     0.2861    93.0965     0.3826     0.4066  0.000e+00
     -0.274    20.1574   9.877699     10.936    7.99653   88.22972 4.7093e+03     0.2863    93.0916     0.8582     0.3061  0.000e+00
     -0.273    20.1776  10.026965     11.096    7.99833   88.28483 4.7126e+03     0.2868    93.0817     0.7401     0.0000  0.000e+00
     -0.273    20.2002  10.176232     11.256    7.99697   88.30940 4.7342e+03     0.2873    93.0686     0.5084     0.0000  0.000e+00
     -0.274    20.2180   9.907550     10.954    7.99687   88.33939 4.7609e+03     0.2877    93.0604     0.3132     0.1112  0.000e+00
     -0.274    20.2325   9.728431     10.753    7.99696   88.36568 4.7676e+03     0.2881    93.0505     0.1850     0.0000  0.000e+00
     -0.274    20.2495   9.519460     10.518    7.99685   88.39427 4.7375e+03     0.2891    93.0275     0.0253     0.0000  0.000e+00
     -0.274    20.2664   9.340344     10.316    7.99133   88.36261 4.7002e+03     0.2884    93.0439     0.0000     0.0000  0.000e+00
     -0.273    20.2786   9.280639     10.247    7.99170   88.38814 4.6829e+03     0.2893    93.0225     0.0854     0.0000  0.000e+00
     -0.273    20.2884   9.131378     10.080    7.98650   88.34772 4.6632e+03     0.2878    93.0571     0.0840     0.0000  0.000e+00
     -0.273    20.2920   9.041822      9.981    7.98723   88.36209 4.6632e+03     0.2877    93.0604     0.2259     0.0000  0.000e+00
     -0.273    20.2896   8.922414      9.849    7.99076   88.39686 4.0926e+03     0.2884    93.0439     0.1981     0.0000  0.000e+00
     -0.273    20.2903   8.832859      9.750    7.99072   88.39761 2.7293e+03     0.2885    93.0423     0.1641     0.0000  0.000e+00
     -0.273    20.2957   8.713452      9.617    7.99120   88.41240 1.3814e+03     0.2904    92.9978     0.1379     0.0684  0.000e+00
     -0.274    20.2968   8.653749      9.551    7.98687   88.36626 1.3734e+03     0.2894    93.0209     0.0999     1.1341  0.000e+00
     -0.273    20.2869   8.594047      9.487    7.99078   88.39237 1.3655e+03     0.2883    93.0456     0.0713     0.1803  0.000e+00
     -0.273    20.2892   8.474642      9.355    7.99089   88.39747 1.4765e+03     0.2882    93.0488     0.0317     0.0000  0.000e+00
     -0.273    20.2975   8.564195      9.452    7.98934   88.39493 2.2406e+03     0.2893    93.0225     0.0198     0.0000  0.000e+00
     -0.273    20.3011   8.653749      9.550    7.98915   88.39920 4.0433e+03     0.2892    93.0258     0.0184     0.0000  0.000e+00
     -0.273    20.3060   8.564195      9.450    7.98908   88.40685 2.8061e+03     0.2897    93.0143     0.2355     0.0000  0.000e+00
     -0.273    20.3156   8.653749      9.547    7.98777   88.40921 2.7641e+03     0.2892    93.0258     0.1806     0.0000  0.000e+00
     -0.273    20.3257   8.653748      9.545    7.98723   88.42087 3.0504e+03     0.2893    93.0225     0.1369     0.0043  0.000e+00
     -0.273    20.3371   8.564194      9.444    7.98931   88.46376 4.3035e+03     0.2884    93.0439     0.1562     0.0143  0.000e+00
     -0.273    20.3485   8.594045      9.475    7.98776   88.46667 4.4511e+03     0.2874    93.0669     0.0962     0.0188  0.000e+00
     -0.273    20.3585   8.534342      9.407    7.98744   88.48044 2.3482e+03     0.2881    93.0505     0.0536     0.0233  0.000e+00
     -0.273    20.3675   8.474640      9.339    7.98732   88.49493 1.3490e+03     0.2872    93.0719     0.0433     0.0313  0.000e+00
     -0.272    20.3757   8.474639      9.337    7.98667   88.50203 1.2100e+03     0.2878    93.0587     0.0423     0.0332  0.000e+00
     -0.272    20.3824   8.414937      9.270    7.98558   88.50159 1.1883e+03     0.2884    93.0439     0.0405     0.0000  0.000e+00
     -0.272    20.3890   8.355235      9.203    7.98644   88.52280 1.1785e+03     0.2880    93.0538     0.0388     0.0000  0.000e+00
     -0.272    20.3967   8.295533      9.136    7.98357   88.50435 1.1746e+03     0.2892    93.0258     0.0369     0.0000  0.000e+00
     -0.263    20.4003   8.265682      9.102    7.97971   88.46786 1.3013e+03     0.2886    93.0390     0.0330     0.0000  0.000e+00
     -0.224    20.0872  15.042968     16.680    8.02246   88.39377 1.6444e+03     0.2887    93.0373     0.0277     0.0000  0.000e+00
     -0.201    18.6159  12.475159     14.300    8.24324   88.18180 3.8975e+03     0.2892    93.0242     0.0430     0.0000  0.000e+00
     -0.178    17.5255 109.863004    129.160    8.41437   88.04883 4.4620e+03     0.2899    93.0094     0.0553     0.0000  0.000e+00
     -0.128    16.8292 189.908865    226.983    8.52756   87.97420 4.4573e+03     0.2902    93.0011     0.0623     0.0000  0.000e+00
     -0.070    16.3156 236.824116    286.577    8.61321   87.91908 4.4106e+03     2.6219    51.9189     0.0572     0.0000  0.000e+00
     -0.011    15.9153 234.047578    285.988    8.68258   87.87887 4.3967e+03     9.2496     9.9024     0.0641     0.0000  0.000e+00
      0.037    15.5743 231.573133    285.343    8.74179   87.83752 4.4417e+03     8.8042    11.0687     0.0753     0.0000  0.000e+00
      0.081    15.2736 230.275765    285.863    8.79065   87.76120 4.4386e+03     6.2678    20.8679     0.0859     0.0000  0.000e+00
      0.128    15.0429 229.732783    286.832    8.83251   87.74275 4.4098e+03     9.2357     9.9369     0.0916     0.0000  0.000e+00
      0.170    14.9110 230.064809    288.197    8.85928   87.75866 4.3890e+03     3.4272    42.4520     0.0761     0.0427  0.000e+00
      0.199    14.8582 231.784919    290.736    8.88649   87.92840 4.4013e+03     1.9097    62.0373     0.0829     0.0000  0.000e+00
      0.223    14.8519 232.750641    291.993    8.92173   88.26552 4.3621e+03     1.6917    65.5132     0.0710     0.0000  0.000e+00
      0.256    14.8394 233.263706    292.729    8.95761   88.59657 4.3605e+03     1.6403    66.3604     0.0741     0.0000  0.000e+00
      0.292    14.8213 235.285884    295.401    9.00113   88.99294 4.2929e+03     1.6368    66.4180     0.0970     0.0000  0.000e+00
      0.329    14.8172 235.768821    296.038    9.04072   89.37646 4.1614e+03     1.6201    66.6960     0.1006     0.0000  0.000e+00
      0.376    14.8140 234.169150    294.053    9.09266   89.88333 1.5101e+03     1.6150    66.7815     0.0939     0.0000  0.000e+00
      0.425    14.8128 234.531331    294.516    9.13676   90.31697 5.7184e+02     1.6030    66.9822     0.0900     0.0000  0.000e+00
      0.478    14.8185 235.195341    295.308    9.17520   90.70840 1.3457e+03     1.6074    66.9082     0.0836     0.0699  0.000e+00
      0.534    14.8290 233.837149    293.525    9.21764   91.14826 1.1172e+03     1.6183    66.7256     0.0807     0.0603  0.000e+00
      0.586    14.8320 232.267800    291.534    9.25809   91.55350 9.2139e+02     1.6231    66.6466     0.0777     0.0000  0.000e+00
      0.608    14.8355 232.418692    291.697    9.30527   92.02711 1.0106e+03     1.6088    66.8851     0.0760     0.0000  0.000e+00
      0.609    14.8591 231.513328    290.389    9.34681   92.48486 9.2318e+02     1.5960    67.0990     0.0753     0.0000  0.000e+00
      0.604    14.8547 230.638201    289.323    9.38469   92.85058 7.5894e+02     1.5903    67.1944     0.0807     0.0000  0.000e+00
      0.595    14.8376 229.944172    288.576    9.38949   92.86357 1.6303e+03     1.6131    66.8128     0.0806     0.0717  0.000e+00
      0.583    14.8230 229.702782    288.379    8.98027   88.78807 8.3388e+02     1.5994    67.0414     0.0793     0.1041  0.000e+00
      0.569    14.8070 229.793318    288.609    8.65080   85.50104 1.4672e+03     1.5872    67.2470     0.0817     0.0842  0.000e+00
      0.552    14.7936 230.004554    288.971    8.61455   85.11806 1.6107e+03     1.5934    67.1434     0.0830     0.0223  0.000e+00
      0.535    14.7885 229.914032    288.894    8.73144   86.26362 1.4888e+03     1.5792    67.3819     0.0806     0.0000  0.000e+00
      0.526    14.7898 229.521757    288.392    8.85926   87.52864 1.5024e+03     1.5893    67.2108     0.0777     0.0000  0.000e+00
      0.527    14.7937 229.521754    288.364    8.97834   88.71272 7.2734e+02     1.5827    67.3227     0.0787     0.0000  0.000e+00
      0.536    14.8050 229.642444    288.433    9.07811   89.72057 6.6524e+02     1.5737    67.4740     0.0915     0.0000  0.000e+00
      0.553    14.8241 229.732955    288.409    9.13888   90.35847 6.9609e+02     1.5910    67.1829     0.1091     0.0000  0.000e+00
      0.571    14.8461 230.064866    288.666    9.15756   90.58636 6.2964e+02     1.6070    66.9147     0.1003     0.0000  0.000e+00
      0.588    14.8690 231.060662    289.749    9.03462   89.41466 6.9523e+02     1.6026    66.9888     0.0980     0.0000  0.000e+00
      0.597    14.8964 232.116859    290.874    8.77197   86.86704 7.6456e+02     1.5971    67.0809     0.0974     0.0097  0.000e+00
      0.598    14.9118 231.633999    290.156    8.49041   84.10675 7.0396e+02     1.6065    66.9230     0.0922     0.0482  0.000e+00
      0.591    14.9133 231.392577    289.843    8.26699   81.89605 6.2348e+02     1.6187    66.7190     0.0938     0.0186  0.000e+00
      0.581    14.9083 230.789043    289.123    8.11291   80.36088 5.5972e+02     1.6129    66.8160     0.0864     0.0000  0.000e+00
      0.574    14.9006 231.000285    289.444    8.06393   79.86244 6.9548e+02     1.6090    66.8818     0.0795     0.0000  0.000e+00
      0.566    14.8861 231.060649    289.625    8.09873   80.18189 6.6465e+02     1.6014    67.0085     0.0755     0.0000  0.000e+00
      0.558    14.8703 231.181369    289.891    8.16560   80.81638 1.0758e+03     1.5986    67.0562     0.0859     0.0000  0.000e+00
      0.552    14.8595 231.271908    290.083    8.22994   81.43436 1.2818e+03     1.5960    67.0990     0.0890     0.0000  0.000e+00
      0.546    14.8471 230.819264    289.605    8.27238   81.83214 9.7143e+02     1.5766    67.4247     0.0843     0.0000  0.000e+00
      0.551    14.8285 230.155405    288.907    8.26684   81.74427 1.6189e+03     1.5886    67.2240     0.0786     0.0000  0.000e+00
      0.560    14.8179 230.004536    288.795    8.23830   81.44333 1.1810e+03     1.5920    67.1664     0.0790     0.0000  0.000e+00
      0.566    14.8220 230.095060    288.879    8.22740   81.34281 6.6958e+02     1.5884    67.2273     0.0785     0.0000  0.000e+00
      0.569    14.8345 230.396807    289.167    8.21404   81.23276 5.7648e+02     1.5807    67.3556     0.0813     0.0000  0.000e+00
      0.567    14.8467 230.819265    289.608    8.20460   81.16094 6.7252e+02     1.6011    67.0134     0.0790     0.0000  0.000e+00
      0.568    14.8461 230.487326    289.196    8.20800   81.19347 7.2824e+02     1.6000    67.0315     0.0803     0.0392  0.000e+00
      0.568    14.8349 230.155401    288.861    8.23823   81.47268 7.2556e+02     1.5895    67.2076     0.0798     0.0687  0.000e+00
      0.567    14.8226 230.095059    288.874    8.31109   82.17138 5.9230e+02     1.5910    67.1829     0.0771     0.0198  0.000e+00
      0.564    14.8075 230.155421    289.060    8.39558   82.97953 6.7560e+02     1.5981    67.0644     0.0772     0.0000  0.000e+00
      0.563    14.7946 230.004554    288.964    8.47153   83.70681 6.1575e+02     1.5899    67.2010     0.0824     0.0000  0.000e+00
      0.564    14.7848 229.883860    288.883    8.49639   83.93461 7.4337e+02     1.5975    67.0743     0.0843     0.0000  0.000e+00
      0.562    14.7780 229.944216    289.009    8.50025   83.96048 6.0737e+02     1.5874    67.2437     0.0829     0.0000  0.000e+00
      0.560    14.7760 230.155445    289.289    8.51101   84.06312 1.2954e+03     1.5796    67.3753     0.0824     0.0000  0.000e+00
      0.555    14.7741 230.366676    289.568    8.52795   84.22695 1.3195e+03     1.5800    67.3688     0.0819     0.0150  0.000e+00
      0.553    14.7666 229.944224    289.091    8.53771   84.30967 1.7110e+03     1.5895    67.2076     0.0831     0.0769  0.000e+00
      0.553    14.7574 229.702830    288.855    8.54224   84.33757 1.7377e+03     1.5892    67.2125     0.0834     0.1639  0.000e+00
      0.553    14.7496 229.642486    288.836    8.56247   84.52289 1.8889e+03     1.5952    67.1121     0.0941     0.0773  0.000e+00
      0.554    14.7448 229.793364    289.060    8.60391   84.92325 1.4974e+03     1.6021    66.9970     0.0958     0.0434  0.000e+00
      0.554    14.7446 230.004591    289.328    8.64435   85.32196 6.6267e+02     1.5970    67.0825     0.0913     0.0197  0.000e+00
      0.558    14.7433 229.853716    289.147    8.65630   85.43764 6.9133e+02     1.5966    67.0891     0.0867     0.0000  0.000e+00
      0.564    14.7395 229.642494    288.909    8.62017   85.07399 5.8877e+02     1.5976    67.0727     0.0829     0.0000  0.000e+00
      0.572    14.7360 229.582147    288.859    8.57467   84.61834 6.3042e+02     1.5938    67.1368     0.0826     0.0000  0.000e+00
      0.578    14.7352 229.702847    289.016    8.53534   84.22877 5.7034e+02     1.5941    67.1302     0.0809     0.0151  0.000e+00
      0.582    14.7390 229.944245    289.292    8.50183   83.90520 9.1237e+02     1.5966    67.0891     0.0803     0.0240  0.000e+00
      0.585    14.7481 230.336520    289.719    8.46694   83.57751 7.2136e+02     1.6007    67.0200     0.0790     0.0536  0.000e+00
      0.585    14.7529 230.276165    289.608    8.42855   83.20715 1.0072e+03     1.5845    67.2931     0.0814     0.0651  0.000e+00
      0.580    14.7494 230.004588    289.292    8.39695   82.88885 9.0075e+02     1.5776    67.4082     0.0845     0.0904  0.000e+00
      0.568    14.7464 230.276170    289.656    8.38437   82.75927 1.3384e+03     1.5880    67.2339     0.0851     0.0758  0.000e+00
      0.546    14.7523 230.276165    289.613    8.37995   82.72621 1.1040e+03     1.5861    67.2651     0.0902     0.0690  0.000e+00
      0.529    14.7637 230.276156    289.530    8.37544   82.70223 1.5499e+03     1.5854    67.2766     0.0958     0.0818  0.000e+00
      0.522    14.7664 229.340727    288.334    8.36156   82.56961 1.6090e+03     1.5715    67.5119     0.0957     0.0678  0.000e+00
      0.524    14.7596 229.220035    288.232    8.33407   82.28598 1.3018e+03     1.5787    67.3902     0.0892     0.0600  0.000e+00
      0.532    14.7546 229.340736    288.420    8.32082   82.14624 1.5510e+03     1.5816    67.3408     0.0836     0.0275  0.000e+00
      0.541    14.7608 229.642478    288.754    8.30558   82.00700 1.3307e+03     1.5744    67.4625     0.0806     0.0000  0.000e+00
      0.549    14.7852 230.789134    290.018    8.28289   81.82640 2.0809e+03     1.5725    67.4938     0.0786     0.0000  0.000e+00
      0.554    14.8228 231.935844    291.184    8.24391   81.50798 1.1419e+03     1.5895    67.2076     0.0803     0.0000  0.000e+00
      0.560    14.8313 231.000336    289.947    8.19046   80.99414 8.3814e+02     1.5762    67.4313     0.0842     0.0000  0.000e+00
      0.573    14.8167 229.883837    288.652    8.12975   80.36799 6.2064e+02     1.5738    67.4724     0.0851     0.0000  0.000e+00
      0.593    14.7894 229.280363    288.092    8.07484   79.77800 6.4035e+02     1.5815    67.3424     0.0806     0.0000  0.000e+00
      0.607    14.7721 230.638263    289.924    8.02391   79.24555 6.3945e+02     1.5882    67.2306     0.0822     0.0068  0.000e+00
      0.608    14.7961 232.901589    292.593    7.99597   79.01124 9.0965e+02     1.5772    67.4148     0.0814     0.0223  0.000e+00
      0.597    14.8049 233.414640    293.172    7.98805   78.94819 1.6907e+03     1.5726    67.4921     0.0831     0.0336  0.000e+00
      0.579    14.8675 233.354232    292.636    7.98453   79.02027 1.9561e+03     1.5838    67.3046     0.0833     0.0256  0.000e+00
      0.560    14.9395 232.478970    291.013    7.97757   79.07395 2.0678e+03     1.5686    67.5596     0.0822     0.0108  0.000e+00
      0.544    14.9980 231.845178    289.795    7.97863   79.18412 2.1591e+03     1.5798    67.3721     0.0830     0.0000  0.000e+00
      0.527    15.0251 231.875335    289.636    7.98105   79.25447 1.5890e+03     1.5749    67.4543     0.0820     0.0000  0.000e+00
      0.513    15.0355 232.720329    290.616    7.98443   79.30597 1.1750e+03     1.5769    67.4198     0.0823     0.0000  0.000e+00
      0.508    15.0418 232.991939    290.909    7.97520   79.22524 1.1798e+03     1.5977    67.0710     0.0799     0.0081  0.000e+00
      0.515    15.0385 232.358179    290.143    7.95308   78.99959 1.0168e+03     1.5856    67.2734     0.0885     0.0011  0.000e+00
      0.536    15.0197 231.814983    289.600    7.92243   78.66308 1.2573e+03     1.5903    67.1944     0.0887     0.0094  0.000e+00
      0.566    14.9802 231.996082    290.112    7.88885   78.26322 9.4484e+02     1.6009    67.0167     0.0896     0.0190  0.000e+00
      0.587    14.9435 233.595617    292.382    7.84753   77.79198 8.4035e+02     1.5729    67.4872     0.1030     0.0050  0.000e+00
      0.597    14.9319 234.078521    293.071    7.79820   77.28378 1.2066e+03     1.6063    66.9263     0.0997     0.0131  0.000e+00
      0.596    14.9516 234.470866    293.417    7.74582   76.79750 1.7316e+03     1.9538    61.3579     0.1002     0.0278  0.000e+00
      0.585    15.0452 234.259523    292.468    7.67860   76.28471 1.3008e+03     1.7123    65.1760     0.0887     0.0154  0.000e+00
      0.574    15.1595 233.354010    290.508    7.62536   75.94211 1.1676e+03     1.6074    66.9082     0.0834     0.0000  0.000e+00
      0.563    15.2344 232.690000    289.142    7.59599   75.77132 1.4846e+03     1.5879    67.2355     0.0829     0.0000  0.000e+00
      0.553    15.2559 232.478730    288.725    7.58648   75.71139 1.0409e+03     1.6001    67.0299     0.0886     0.0000  0.000e+00
      0.557    15.2495 232.689989    289.033    7.58757   75.71195 1.1821e+03     1.5979    67.0677     0.0925     0.0441  0.000e+00
      0.580    15.2236 232.599471    289.107    7.58514   75.64560 1.0411e+03     1.5878    67.2372     0.0877     0.0480  0.000e+00
      0.626    15.1612 232.358088    289.256    7.59373   75.62954 7.2060e+02     1.5798    67.3721     0.0845     0.0349  0.000e+00
      0.675    15.0767 233.414436    291.183    7.59718   75.52689 6.3330e+02     1.5933    67.1450     0.0828     0.0327  0.000e+00
      0.695    15.0317 234.289717    292.604    7.59319   75.41424 8.3227e+02     1.5811    67.3490     0.0785     0.0143  0.000e+00
      0.705    15.0780 234.410408    292.416    7.56515   75.21079 6.7739e+02     1.5883    67.2289     0.0780     0.0081  0.000e+00
      0.711    15.2012 234.108500    291.145    7.55365   75.29560 9.0059e+02     1.5789    67.3869     0.0773     0.0097  0.000e+00
      0.713    15.3049 233.685888    289.871    7.58057   75.73227 1.4752e+03     1.5750    67.4527     0.0771     0.0163  0.000e+00
      0.713    15.3614 233.414221    289.129    7.67430   76.76150 1.1044e+03     1.5728    67.4889     0.0765     0.0152  0.000e+00
      0.711    15.3627 233.353859    289.045    7.81640   78.18506 1.0773e+03     1.5636    67.6451     0.0770     0.0171  0.000e+00
      0.711    15.3428 233.474595    289.337    7.98789   79.86625 1.3569e+03     1.5659    67.6056     0.0797     0.0204  0.000e+00
      0.714    15.3255 233.716053    289.761    8.14956   81.45262 1.0195e+03     1.5715    67.5119     0.0820     0.0241  0.000e+00
      0.714    15.3226 234.229133    290.417    8.27862   82.73763 7.7307e+02     1.5858    67.2701     0.0851     0.0237  0.000e+00
      0.713    15.3274 234.681856    290.944    8.36131   83.57269 7.0743e+02     1.5682    67.5678     0.0845     0.0200  0.000e+00
      0.706    15.3154 234.832775    291.218    8.39375   83.87541 1.0394e+03     1.5710    67.5201     0.0837     0.0098  0.000e+00
      0.695    15.3022 234.832785    291.313    8.38629   83.77716 1.0821e+03     1.5624    67.6649     0.0848     0.0100  0.000e+00
      0.684    15.3155 234.712046    291.068    8.33209   83.25939 6.8734e+02     1.5798    67.3721     0.0851     0.0211  0.000e+00
      0.676    15.3390 234.259301    290.337    8.26094   82.58982 7.2060e+02     1.5872    67.2470     0.0832     0.0182  0.000e+00
      0.678    15.3455 233.897121    289.841    8.17859   81.77794 7.2760e+02     1.5901    67.1977     0.0840     0.0150  0.000e+00
      0.688    15.3407 233.927306    289.913    8.09002   80.88388 1.2847e+03     1.5798    67.3721     0.0832     0.0098  0.000e+00
      0.702    15.3240 234.470584    290.707    7.99822   79.93772 6.5079e+02     1.5806    67.3573     0.0803     0.0032  0.000e+00
      0.719    15.3209 235.044049    291.440    7.90465   78.99742 7.1997e+02     1.5901    67.1977     0.0780     0.0100  0.000e+00
      0.729    15.3209 235.225145    291.664    7.80613   78.01299 7.6537e+02     1.5821    67.3326     0.0799     0.0163  0.000e+00
      0.735    15.3546 235.285486    291.496    7.71718   77.17968 8.7994e+02     1.5817    67.3392     0.0791     0.0214  0.000e+00
      0.738    15.4480 235.134500    290.636    7.63845   76.54522 8.2066e+02     1.5963    67.0941     0.0826     0.0130  0.000e+00
      0.736    15.5197 234.923167    289.861    7.54931   75.76789 7.4887e+02     1.5952    67.1121     0.0787     0.0070  0.000e+00
      0.726    15.5710 235.013675    289.606    7.53151   75.67212 8.3257e+02     1.5903    67.1944     0.0777     0.0074  0.000e+00
      0.716    15.6027 235.043833    289.417    7.50195   75.42631 9.0551e+02     1.5723    67.4971     0.0802     0.0026  0.000e+00
      0.703    15.6226 235.074001    289.313    7.47403   75.17741 6.9401e+02     1.5798    67.3721     0.0809     0.0000  0.000e+00
      0.691    15.6336 234.832532    288.937    7.44405   74.89339 7.6510e+02     1.5767    67.4231     0.0816     0.0017  0.000e+00
      0.689    15.6240 234.711811    288.857    7.42024   74.63845 1.1104e+03     1.5788    67.3885     0.0826     0.0133  0.000e+00
      0.686    15.5953 234.983473    289.395    7.37782   74.16649 8.2921e+02     1.5889    67.2191     0.0874     0.0105  0.000e+00
      0.685    15.5815 235.406043    290.014    7.33830   73.74764 7.0470e+02     1.5817    67.3392     0.0865     0.0188  0.000e+00
      0.687    15.5839 235.677691    290.332    7.28920   73.25794 7.7239e+02     1.5845    67.2931     0.0818     0.0287  0.000e+00
      0.685    15.5877 235.647505    290.268    7.24292   72.79870 9.2871e+02     1.5870    67.2503     0.0797     0.0354  0.000e+00
      0.690    15.5935 235.466400    290.003    7.20685   72.44504 8.1821e+02     1.5810    67.3507     0.0797     0.0303  0.000e+00
      0.697    15.5939 235.224936    289.703    7.17401   72.11557 6.8637e+02     1.5689    67.5547     0.0848     0.0190  0.000e+00
      0.708    15.5890 235.074026    289.552    7.14950   71.86153 7.0334e+02     1.5800    67.3688     0.1102     0.0014  0.000e+00
      0.721    15.5841 235.406042    289.996    7.12568   71.61476 9.1125e+02     1.5733    67.4806     0.1064     0.0018  0.000e+00
      0.728    15.5979 235.828599    290.418    7.10199   71.39779 1.1821e+03     1.5743    67.4642     0.0980     0.0117  0.000e+00
      0.727    15.6276 235.949312    290.354    7.07615   71.18309 1.8141e+03     1.5754    67.4461     0.0937     0.0183  0.000e+00
      0.725    15.6469 235.888929    290.142    7.05622   71.01191 7.5574e+02     1.5950    67.1154     0.0891     0.0322  0.000e+00
      0.720    15.6816 235.617250    289.561    7.03587   70.85937 9.4434e+02     1.5994    67.0414     0.0832     0.0286  0.000e+00
      0.716    15.7189 235.224841    288.813    7.02406   70.79672 9.3987e+02     1.5762    67.4313     0.0781     0.0146  0.000e+00
      0.714    15.7428 235.345554    288.792    7.01382   70.72946 1.4419e+03     1.5691    67.5514     0.0767     0.0129  0.000e+00
      0.710    15.7575 235.526642    288.910    6.99894   70.60141 9.1962e+02     1.5770    67.4181     0.0935     0.0181  0.000e+00
      0.705    15.7769 235.828462    289.142    6.98822   70.52259 7.6442e+02     1.5869    67.2520     0.0918     0.0139  0.000e+00
      0.700    15.8019 235.949178    289.113    6.97061   70.38232 7.5019e+02     1.6049    66.9493     0.0864     0.0157  0.000e+00
      0.694    15.8185 235.979349    289.032    6.94825   70.18126 7.2086e+02     1.5903    67.1944     0.0808     0.0000  0.000e+00
      0.691    15.8257 235.949159    288.945    6.92401   69.94717 8.5932e+02     1.5685    67.5612     0.0777     0.0000  0.000e+00
      0.690    15.8251 235.768057    288.727    6.89835   69.68701 7.6779e+02     1.5828    67.3211     0.0753     0.0000  0.000e+00
      0.691    15.8185 235.707695    288.700    6.87637   69.45518 7.6887e+02     1.5800    67.3688     0.0767     0.0022  0.000e+00
      0.695    15.8106 235.828436    288.903    6.85042   69.18157 9.4750e+02     1.5767    67.4231     0.0761     0.0098  0.000e+00
      0.701    15.8057 236.009543    289.160    6.82252   68.89269 6.9694e+02     1.5843    67.2964     0.0764     0.0102  0.000e+00
      0.707    15.8066 236.069910    289.227    6.79238   68.58962 6.9621e+02     1.5902    67.1960     0.0787     0.0150  0.000e+00
      0.714    15.8109 236.190644    289.345    6.76610   68.33048 8.7056e+02     1.5846    67.2898     0.0842     0.0159  0.000e+00
      0.722    15.8149 236.190641    289.316    6.73827   68.05526 7.8360e+02     1.5960    67.0990     0.0871     0.0035  0.000e+00
      0.728    15.8174 236.190639    289.299    6.70749   67.74796 7.8705e+02     1.5703    67.5316     0.0803     0.0031  0.000e+00
      0.735    15.8186 236.190638    289.290    6.68226   67.49489 1.0352e+03     1.5848    67.2865     0.0770     0.0000  0.000e+00
      0.736    15.8197 236.371743    289.505    6.65441   67.21516 7.1556e+02     1.5781    67.4000     0.0755     0.0000  0.000e+00
      0.731    15.8218 236.401926    289.526    6.62810   66.95249 8.0255e+02     1.5813    67.3457     0.0775     0.0000  0.000e+00
      0.719    15.8247 236.432108    289.543    6.60595   66.73276 6.4159e+02     1.5929    67.1516     0.0760     0.0000  0.000e+00
      0.702    15.8252 236.401923    289.502    6.58819   66.55410 8.1577e+02     1.5975    67.0743     0.0737     0.0000  0.000e+00
      0.689    15.8258 236.069895    289.092    6.56648   66.33550 7.2378e+02     1.5818    67.3375     0.0752     0.0018  0.000e+00
      0.682    15.8246 235.707690    288.657    6.55059   66.17322 6.9267e+02     1.5649    67.6221     0.0767     0.0000  0.000e+00
      0.682    15.8140 235.586965    288.583    6.53572   66.00818 8.9838e+02     1.5854    67.2766     0.0755     0.0061  0.000e+00
      0.687    15.7900 235.979370    289.235    6.52762   65.89265 6.9170e+02     1.5854    67.2766     0.0784     0.0166  0.000e+00
      0.692    15.7772 236.190669    289.585    6.52008   65.79872 7.3855e+02     1.5815    67.3424     0.0821     0.0128  0.000e+00
      0.699    15.7680 236.281229    289.761    6.51197   65.70405 8.4658e+02     1.5938    67.1368     0.0819     0.0063  0.000e+00
      0.709    15.7625 236.251049    289.763    6.50319   65.60778 1.2132e+03     1.5949    67.1171     0.0781     0.0132  0.000e+00
      0.722    15.7867 236.039742    289.332    6.49822   65.59137 1.5644e+03     1.5865    67.2586     0.0763     0.0161  0.000e+00
      0.736    15.8048 235.949176    289.093    6.48604   65.49360 1.1153e+03     1.5777    67.4066     0.0752     0.0244  0.000e+00
      0.744    15.8134 236.190642    289.328    6.47307   65.37468 1.0262e+03     1.5775    67.4099     0.0765     0.0293  0.000e+00
      0.742    15.8390 236.311360    289.293    6.45519   65.22968 1.2500e+03     1.5864    67.2602     0.0758     0.0278  0.000e+00
      0.733    15.8647 236.281156    289.075    6.43171   65.02789 6.7489e+02     1.5768    67.4214     0.0752     0.0253  0.000e+00
      0.717    15.8879 236.250953    288.874    6.41309   64.87158 7.2060e+02     1.5757    67.4411     0.0848     0.0233  0.000e+00
      0.702    15.9301 235.949079    288.207    6.39424   64.73871 7.2760e+02     1.5850    67.2832     0.0848     0.0220  0.000e+00
      0.685    15.9580 235.767955    287.790    6.38192   64.65227 1.0878e+03     1.5876    67.2405     0.0821     0.0206  0.000e+00
      0.667    15.9703 235.828313    287.777    6.36446   64.49221 1.3417e+03     1.5797    67.3737     0.0818     0.0198  0.000e+00
      0.656    15.9806 235.888672    287.779    6.35852   64.44605 1.2218e+03     1.5642    67.6353     0.0804     0.0183  0.000e+00
      0.651    15.9922 235.828296    287.623    6.34598   64.33482 7.0706e+02     1.5717    67.5086     0.0811     0.0210  0.000e+00
      0.657    15.9951 235.767926    287.529    6.34211   64.29954 6.8855e+02     1.5680    67.5711     0.0816     0.0313  0.000e+00
      0.672    15.9807 235.767938    287.630    6.32887   64.14568 7.0161e+02     1.5793    67.3803     0.0790     0.0313  0.000e+00
      0.690    15.9555 235.979244    288.066    6.31607   63.98175 7.2327e+02     1.5811    67.3490     0.0809     0.0264  0.000e+00
      0.705    15.9473 236.190539    288.381    6.30337   63.84215 1.3197e+03     1.5803    67.3622     0.0813     0.0237  0.000e+00
      0.716    15.9583 236.250899    288.377    6.28995   63.72102 1.5545e+03     1.5725    67.4938     0.0776     0.0257  0.000e+00
      0.722    15.9673 236.371630    288.461    6.27805   63.61270 1.1682e+03     1.5816    67.3408     0.0788     0.0285  0.000e+00
      0.724    15.9920 236.190505    288.067    6.26450   63.50859 1.3785e+03     1.5909    67.1845     0.0803     0.0239  0.000e+00
      0.724    16.0186 235.949012    287.585    6.25824   63.48085 1.6470e+03     1.5683    67.5662     0.0853     0.0148  0.000e+00
      0.720    16.0320 235.888634    287.418    6.25118   63.42715 9.9702e+02     1.5748    67.4560     0.0977     0.0146  0.000e+00
      0.710    16.0494 236.069724    287.516    6.25365   63.47583 1.1590e+03     1.5712    67.5168     0.1256     0.0127  0.000e+00
      0.693    16.0693 236.250813    287.598    6.24465   63.41109 7.0026e+02     1.5860    67.2668     0.1302     0.0161  0.000e+00
      0.672    16.0829 236.190434    287.429    6.24215   63.40390 6.9279e+02     1.5940    67.1319     0.1144     0.0253  0.000e+00
      0.654    16.0847 236.039512    287.233    6.22828   63.26545 7.3570e+02     1.5811    67.3490     0.1000     0.0233  0.000e+00
      0.647    16.0806 235.767860    286.931    6.21994   63.17520 6.5296e+02     1.5875    67.2421     0.1006     0.0254  0.000e+00
      0.651    16.0674 235.466037    286.656    6.20448   63.00047 6.9048e+02     1.5842    67.2980     0.1007     0.0277  0.000e+00
      0.662    16.0206 235.586806    287.130    6.20260   62.91905 9.2529e+02     1.5810    67.3507     0.0927     0.0198  0.000e+00
      0.675    15.9640 235.979237    288.006    6.20276   62.84521 8.4896e+02     1.5717    67.5086     0.0857     0.0191  0.000e+00
      0.688    15.9309 236.130182    288.423    6.20750   62.84920 8.7994e+02     1.5844    67.2947     0.0804     0.0142  0.000e+00
      0.697    15.9130 236.250933    288.697    6.21832   62.93485 6.8097e+02     1.5944    67.1253     0.0786     0.0179  0.000e+00
      0.706    15.9389 236.069809    288.293    6.22824   63.06993 7.5058e+02     1.5906    67.1895     0.0902     0.0138  0.000e+00
      0.717    15.9817 235.918856    287.808    6.23596   63.20538 7.7320e+02     1.5786    67.3918     0.1018     0.0188  0.000e+00
      0.720    16.0178 235.828277    287.444    6.25030   63.39918 7.5934e+02     1.5808    67.3540     0.1150     0.0197  0.000e+00
      0.713    16.0335 235.979184    287.518    6.25736   63.49189 8.9365e+02     1.5808    67.3540     0.1215     0.0218  0.000e+00
      0.702    16.0457 236.069727    287.542    6.26208   63.55638 7.9637e+02     1.5911    67.1812     0.1228     0.0262  0.000e+00
      0.690    16.0560 235.979166    287.360    6.26108   63.56009 9.9335e+02     1.5992    67.0447     0.1118     0.0333  0.000e+00
      0.681    16.0536 235.647148    286.972    6.25599   63.50507 1.3562e+03     1.5805    67.3589     0.1081     0.0330  0.000e+00
      0.687    16.0345 235.466063    286.885    6.25502   63.46952 6.9194e+02     1.5709    67.5218     0.1036     0.0223  0.000e+00
      0.690    16.0064 235.767918    287.450    6.27165   63.60041 8.3213e+02     1.5734    67.4790     0.0960     0.0191  0.000e+00
      0.687    15.9900 236.039585    287.896    6.29698   63.83519 9.3575e+02     1.5772    67.4148     0.0910     0.0239  0.000e+00
      0.681    15.9716 236.190519    288.210    6.33123   64.15740 9.0551e+02     1.5689    67.5547     0.0892     0.0241  0.000e+00
      0.667    15.9881 236.009402    287.873    6.37029   64.57568 8.7347e+02     1.5804    67.3605     0.0848     0.0255  0.000e+00
      0.660    16.0220 235.707539    287.267    6.41048   65.02966 6.7537e+02     1.5775    67.4099     0.0811     0.0275  0.000e+00
      0.669    16.0535 235.345316    286.606    6.45886   65.56414 7.0198e+02     1.5626    67.6616     0.0798     0.0249  0.000e+00
      0.684    16.0583 235.194398    286.388    6.50728   66.06244 9.1719e+02     1.5720    67.5037     0.0780     0.0161  0.000e+00
      0.699    16.0378 235.526427    286.936    6.56576   66.62716 7.1518e+02     1.5874    67.2437     0.0752     0.0148  0.000e+00
      0.709    16.0172 235.888645    287.522    6.63582   67.30882 8.0821e+02     1.5697    67.5415     0.0755     0.0184  0.000e+00
      0.708    15.9962 236.069765    287.890    6.71320   68.06344 7.5987e+02     1.5775    67.4099     0.0780     0.0177  0.000e+00
      0.697    16.0282 235.918820    287.481    6.77951   68.78227 6.2053e+02     1.5759    67.4379     0.0761     0.0224  0.000e+00
      0.687    16.0871 235.586756    286.665    6.85207   69.60512 7.2136e+02     1.5796    67.3753     0.0804     0.0258  0.000e+00
      0.682    16.1184 235.284900    286.080    6.93451   70.48930 6.4589e+02     1.5821    67.3326     0.0838     0.0237  0.000e+00
      0.680    16.1093 235.194359    286.033    7.04003   71.54806 6.9719e+02     1.5826    67.3244     0.0808     0.0262  0.000e+00
      0.677    16.0725 235.466034    286.620    7.17954   72.90928 9.1913e+02     1.5897    67.2043     0.0755     0.0258  0.000e+00
      0.674    16.0518 235.707516    287.059    7.32584   74.36230 1.1167e+03     1.5843    67.2964     0.0753     0.0234  0.000e+00
      0.669    16.0209 235.767907    287.348    7.47026   75.77874 6.8529e+02     1.5991    67.0463     0.0770     0.0217  0.000e+00
      0.671    16.0005 235.526455    287.197    7.59669   77.02781 1.0206e+03     1.5785    67.3934     0.0795     0.0213  0.000e+00
      0.680    15.9929 235.496278    287.214    7.69578   78.02000 7.9023e+02     1.5804    67.3605     0.0816     0.0184  0.000e+00
      0.685    15.9713 235.526478    287.402    7.76389   78.67439 8.3154e+02     1.5701    67.5349     0.0828     0.0179  0.000e+00
      0.686    15.9694 235.767947    287.710    7.79058   78.94180 9.2059e+02     1.5721    67.5020     0.0855     0.0172  0.000e+00
      0.681    15.9922 235.828296    287.623    7.78231   78.89618 6.2184e+02     1.5801    67.3671     0.0840     0.0163  0.000e+00
      0.676    16.0100 235.707548    287.351    7.75212   78.61974 6.9000e+02     1.5929    67.1516     0.0826     0.0188  0.000e+00
      0.679    16.0158 235.405711    286.943    7.71216   78.22396 7.0843e+02     1.5781    67.4000     0.0823     0.0207  0.000e+00
      0.690    16.0202 235.254793    286.728    7.65957   77.69769 7.2238e+02     1.5762    67.4313     0.0800     0.0227  0.000e+00
      0.698    16.0150 235.466078    287.022    7.61060   77.19264 1.0655e+03     1.5763    67.4296     0.0758     0.0233  0.000e+00
      0.699    16.0082 235.707550    287.364    7.56912   76.76075 1.1293e+03     1.5670    67.5876     0.0731     0.0231  0.000e+00
      0.694    16.0021 235.888656    287.627    7.52763   76.33033 2.4628e+03     1.5825    67.3260     0.0735     0.0217  0.000e+00
      0.679    16.0155 235.828278    287.459    7.48863   75.95648 1.3916e+03     1.5924    67.1599     0.0722     0.0205  0.000e+00
      0.667    16.0466 235.466053    286.801    7.45542   75.66928 1.2726e+03     1.5694    67.5464     0.0745     0.0198  0.000e+00
      0.668    16.0685 235.254755    286.391    7.42457   75.39108 1.0352e+03     1.5762    67.4313     0.0813     0.0169  0.000e+00
      0.670    16.0678 235.073660    286.175    7.40577   75.19908 8.9790e+02     1.5667    67.5925     0.0852     0.0171  0.000e+00
      0.676    16.0541 235.405681    286.675    7.39134   75.03073 7.8264e+02     1.5894    67.2092     0.0859     0.0244  0.000e+00
      0.682    16.0423 235.586790    286.978    7.39405   75.03956 8.9507e+02     1.5792    67.3819     0.0829     0.0230  0.000e+00
      0.682    16.0154 235.707544    287.313    7.39591   75.01571 6.9597e+02     1.5959    67.1006     0.0808     0.0259  0.000e+00
      0.684    16.0120 235.647180    287.263    7.39729   75.02437 8.0170e+02     1.5872    67.2470     0.0887     0.0226  0.000e+00
      0.691    16.0269 235.466069    286.939    7.40518   75.12800 6.8288e+02     1.5750    67.4527     0.0989     0.0230  0.000e+00
      0.695    16.0421 235.345325    286.685    7.41752   75.27741 8.8056e+02     1.5675    67.5793     0.0935     0.0192  0.000e+00
      0.694    16.0542 235.405682    286.674    7.42637   75.38651 6.5676e+02     1.5760    67.4346     0.0882     0.0222  0.000e+00
      0.689    16.0639 235.556590    286.790    7.43812   75.52139 1.0072e+03     1.5826    67.3244     0.0864     0.0198  0.000e+00
      0.677    16.0748 235.647132    286.824    7.44101   75.56820 7.8760e+02     1.5903    67.1944     0.0822     0.0189  0.000e+00
      0.667    16.0788 235.496212    286.612    7.44375   75.60240 7.4180e+02     1.5872    67.2470     0.0785     0.0192  0.000e+00
      0.664    16.0761 235.284932    286.374    7.44610   75.62191 8.4807e+02     1.5795    67.3770     0.0771     0.0094  0.000e+00
      0.667    16.0690 235.194389    286.313    7.44099   75.55866 8.5600e+02     1.5687    67.5579     0.0780     0.0109  0.000e+00
      0.673    16.0533 235.194402    286.423    7.43361   75.45849 1.1984e+03     1.5663    67.5991     0.0805     0.0150  0.000e+00
      0.682    16.0403 235.466058    286.845    7.42717   75.37241 1.1767e+03     1.5810    67.3507     0.0786     0.0125  0.000e+00
      0.688    16.0329 235.586797    287.043    7.41980   75.28597 1.1594e+03     1.5846    67.2898     0.0950     0.0060  0.000e+00
      0.691    16.0222 235.616989    287.155    7.41300   75.19990 1.0888e+03     1.5854    67.2766     0.0935     0.0100  0.000e+00
      0.693    16.0314 235.526432    286.981    7.39695   75.05161 1.1771e+03     1.5794    67.3786     0.0877     0.0148  0.000e+00
      0.693    16.0489 235.466052    286.785    7.38424   74.95053 1.0562e+03     1.5783    67.3967     0.0814     0.0159  0.000e+00
      0.689    16.0547 235.345315    286.597    7.37447   74.86047 7.4350e+02     1.5870    67.2503     0.0793     0.0146  0.000e+00
      0.683    16.0613 235.345310    286.551    7.35345   74.65747 1.0838e+03     1.5777    67.4066     0.0790     0.0179  0.000e+00
      0.679    16.0684 235.284939    286.428    7.33641   74.49561 9.3034e+02     1.5726    67.4921     0.0837     0.0192  0.000e+00
      0.676    16.0723 235.284936    286.401    7.31537   74.28823 1.1503e+03     1.5775    67.4099     0.0813     0.0183  0.000e+00
      0.681    16.0726 235.284935    286.399    7.29196   74.05096 7.5217e+02     1.5764    67.4280     0.0785     0.0181  0.000e+00
      0.685    16.0705 235.345303    286.487    7.26543   73.77828 1.2827e+03     1.5702    67.5333     0.0790     0.0169  0.000e+00
      0.685    16.0705 235.405669    286.560    7.23552   73.47458 1.0770e+03     1.5608    67.6928     0.0777     0.0184  0.000e+00
      0.684    16.0773 235.496213    286.623    7.20150   73.13970 8.8087e+02     1.5799    67.3704     0.0773     0.0197  0.000e+00
      0.678    16.0845 235.526391    286.610    7.16807   72.81120 7.1644e+02     1.5852    67.2799     0.0771     0.0225  0.000e+00
      0.674    16.0859 235.405657    286.453    7.13891   72.51720 8.9617e+02     1.5739    67.4708     0.0758     0.0220  0.000e+00
      0.674    16.0818 235.284928    286.334    7.11123   72.22973 7.4677e+02     1.5655    67.6122     0.0777     0.0221  0.000e+00
      0.676    16.0759 235.194384    286.265    7.09084   72.01350 1.0220e+03     1.5685    67.5612     0.0813     0.0208  0.000e+00
      0.681    16.0683 235.194390    286.319    7.06820   71.77202 7.0334e+02     1.5692    67.5497     0.0835     0.0243  0.000e+00
      0.686    16.0610 235.345310    286.553    7.05163   71.59270 8.1735e+02     1.5703    67.5316     0.0852     0.0230  0.000e+00
      0.687    16.0578 235.405679    286.649    7.03973   71.46714 1.0976e+03     1.5798    67.3721     0.0984     0.0217  0.000e+00
      0.684    16.0555 235.556596    286.849    7.02774   71.34201 7.2632e+02     1.5775    67.4099     0.1008     0.0200  0.000e+00
      0.680    16.0619 235.405676    286.621    7.01225   71.19422 9.5083e+02     1.5683    67.5645     0.1006     0.0217  0.000e+00
      0.677    16.0749 235.254751    286.346    6.99480   71.03677 1.0149e+03     1.5799    67.3704     0.1000     0.0224  0.000e+00
      0.678    16.0783 235.073652    286.102    6.98082   70.89981 1.0065e+03     1.5820    67.3342     0.0963     0.0233  0.000e+00
      0.682    16.0755 235.043472    286.084    6.97080   70.79381 1.1176e+03     1.5639    67.6402     0.0933     0.0222  0.000e+00
      0.688    16.0716 235.194388    286.296    6.95977   70.67596 1.1806e+03     1.5772    67.4148     0.0906     0.0250  0.000e+00
      0.688    16.0742 235.345300    286.461    6.94844   70.56482 1.4675e+03     1.5857    67.2717     0.0880     0.0256  0.000e+00
      0.686    16.0734 235.405667    286.540    6.94817   70.56087 1.4551e+03     1.5766    67.4247     0.0936     0.0240  0.000e+00
      0.682    16.0736 235.345301    286.465    6.93308   70.40794 1.2619e+03     1.5920    67.1664     0.1009     0.0235  0.000e+00
      0.678    16.0831 235.194379    286.215    6.92871   70.37762 1.5205e+03     1.5710    67.5201     0.0999     0.0257  0.000e+00
      0.681    16.0850 235.073647    286.055    6.92359   70.32838 7.3972e+02     1.5800    67.3688     0.1107     0.0218  0.000e+00
      0.685    16.0887 235.043462    285.993    6.90848   70.18046 7.3972e+02     1.5848    67.2865     0.1047     0.0182  0.000e+00
      0.686    16.0894 235.224557    286.208    6.90319   70.12785 6.8988e+02     1.5746    67.4592     0.0976     0.0192  0.000e+00
      0.686    16.0917 235.284921    286.266    6.89831   70.08171 6.8770e+02     1.5815    67.3424     0.0905     0.0192  0.000e+00
      0.684    16.0885 235.284923    286.288    6.89739   70.06771 7.6914e+02     1.5802    67.3638     0.0908     0.0191  0.000e+00
      0.685    16.0803 235.194381    286.235    6.89040   69.98448 7.2658e+02     1.5804    67.3605     0.0991     0.0188  0.000e+00
      0.689    16.0686 235.134025    286.243    6.88201   69.88179 8.3726e+02     1.5825    67.3260     0.0948     0.0186  0.000e+00
      0.688    16.0586 235.134032    286.312    6.87391   69.78491 9.6175e+02     1.5794    67.3786     0.0886     0.0167  0.000e+00
      0.680    16.0594 235.284946    286.491    6.85873   69.63189 1.3429e+03     1.5711    67.5185     0.0826     0.0280  0.000e+00
      0.670    16.0678 235.345305    286.506    6.84540   69.50905 8.0001e+02     1.5691    67.5514     0.0788     0.0297  0.000e+00
      0.659    16.0704 235.224571    286.341    6.82422   69.29768 1.0072e+03     1.5750    67.4527     0.0780     0.0259  0.000e+00
      0.658    16.0676 234.983112    286.066    6.80842   69.13310 8.0707e+02     1.5816    67.3408     0.0785     0.0308  0.000e+00
      0.669    16.0647 234.952932    286.050    6.79096   68.95157 1.0692e+03     1.5813    67.3457     0.0784     0.0290  0.000e+00
      0.679    16.0612 234.922753    286.037    6.78236   68.85913 8.5690e+02     1.5699    67.5382     0.0793     0.0278  0.000e+00
      0.686    16.0539 235.194401    286.419    6.78557   68.88120 7.1430e+02     1.5815    67.3424     0.0777     0.0262  0.000e+00
      0.689    16.0381 235.284962    286.640    6.80102   69.01495 7.0211e+02     1.5741    67.4675     0.0755     0.0205  0.000e+00
      0.691    16.0310 235.224602    286.616    6.80453   69.04010 7.0532e+02     1.5611    67.6863     0.0755     0.0210  0.000e+00
      0.695    16.0421 235.043497    286.318    6.81707   69.18354 8.4911e+02     1.5754    67.4461     0.0777     0.0223  0.000e+00
      0.702    16.0506 234.892579    286.074    6.82397   69.26607 8.2282e+02     1.5842    67.2980     0.0819     0.0213  0.000e+00
      0.704    16.0536 234.983124    286.164    6.83213   69.35337 9.8000e+02     1.5808    67.3540     0.0805     0.0225  0.000e+00
      0.699    16.0557 235.134035    286.333    6.83228   69.35792 1.2286e+03     1.5795    67.3770     0.0793     0.0224  0.000e+00
      0.697    16.0616 235.134030    286.292    6.83686   69.41318 6.4805e+02     1.5796    67.3753     0.0800     0.0219  0.000e+00
      0.707    16.0585 234.832208    285.946    6.83076   69.34651 9.5855e+02     1.5787    67.3902     0.0821     0.0228  0.000e+00
      0.746    16.0455 234.560581    285.706    6.82997   69.31938 1.1491e+03     1.5862    67.2635     0.0822     0.0219  0.000e+00
      0.800    15.9846 234.470083    286.020    6.84223   69.35426 9.1768e+02     1.5815    67.3424     0.0811     0.0204  0.000e+00
      0.848    15.8519 234.892734    287.466    6.88032   69.54418 1.2586e+03     1.5737    67.4740     0.1053     0.0198  0.000e+00
      0.890    15.7470 235.073910    288.429    6.93528   69.94362 1.2606e+03     1.5833    67.3128     0.1061     0.0198  0.000e+00
      0.934    15.6668 235.043789    288.961    6.99343   70.40969 9.9318e+02     1.5771    67.4165     0.0967     0.0209  0.000e+00
      0.979    15.6814 234.832502    288.597    7.07068   71.20955 1.3316e+03     1.5738    67.4724     0.0912     0.0219  0.000e+00
      1.023    15.7403 234.832458    288.180    7.17236   72.32423 1.5019e+03     1.5761    67.4329     0.0867     0.0214  0.000e+00
      1.058    15.7893 234.922969    287.945    7.30619   73.75064 1.1594e+03     1.5754    67.4461     0.0860     0.0224  0.000e+00
      1.097    15.8241 234.832396    287.588    7.46145   75.37360 1.2557e+03     1.5673    67.5826     0.0926     0.0225  0.000e+00
      1.144    15.8328 234.681479    287.342    7.61031   76.89154 9.0997e+02     1.5745    67.4609     0.1031     0.0212  0.000e+00
      1.186    15.8166 234.711675    287.493    7.75168   78.29282 1.3882e+03     1.5859    67.2684     0.1136     0.0210  0.000e+00
      1.229    15.7980 234.772054    287.698    7.85670   79.32219 1.4719e+03     1.5738    67.4724     0.1067     0.0220  0.000e+00
      1.271    15.7961 234.832421    287.786    7.92074   79.96565 8.6949e+02     1.5743    67.4642     0.0980     0.0240  0.000e+00
      1.301    15.7956 234.983334    287.974    7.94372   80.19676 1.2258e+03     1.5920    67.1664     0.0918     0.0244  0.000e+00
      1.329    15.8027 234.953147    287.887    7.92855   80.05570 1.1212e+03     1.5973    67.0776     0.0875     0.0227  0.000e+00
      1.371    15.8056 234.560777    287.386    7.88552   79.62597 5.4535e+02     1.5726    67.4921     0.0835     0.0215  0.000e+00
      1.427    15.7882 234.289157    287.176    7.83021   79.03811 7.2187e+02     1.5724    67.4954     0.0816     0.0217  0.000e+00
      1.478    15.7336 234.560835    287.894    7.78039   78.44412 9.5535e+02     1.5862    67.2635     0.0795     0.0205  0.000e+00
      1.515    15.6717 234.832521    288.666    7.73342   77.86787 8.8428e+02     1.5731    67.4839     0.0765     0.0192  0.000e+00
      1.563    15.5877 234.621312    289.003    7.69577   77.35005 7.9693e+02     1.5762    67.4313     0.0787     0.0182  0.000e+00
      1.610    15.5430 234.591165    289.285    7.66393   76.95659 6.1629e+02     1.5795    67.3770     0.0826     0.0175  0.000e+00
      1.644    15.5396 234.832625    289.607    7.62718   76.58205 4.7509e+02     1.5804    67.3605     0.0869     0.0188  0.000e+00
      1.680    15.5668 234.711876    289.264    7.58578   76.21063 4.9790e+02     1.5862    67.2635     0.0874     0.0193  0.000e+00
      1.722    15.5835 234.470409    288.847    7.54764   75.85446 7.0780e+02     1.5825    67.3260     0.0896     0.0215  0.000e+00
      1.764    15.5843 234.349683    288.693    7.51636   75.54121 5.2596e+02     1.5947    67.1204     0.0938     0.0218  0.000e+00
      1.800    15.5833 234.500593    288.886    7.48267   75.20115 4.5611e+02     1.5940    67.1319     0.1351     0.0217  0.000e+00
      1.837    15.5914 234.530769    288.865    7.43980   74.78325 4.3087e+02     1.5865    67.2586     0.1456     0.0221  0.000e+00
      1.886    15.5944 234.410041    288.695    7.39232   74.31072 4.2966e+02     1.5834    67.3112     0.1348     0.0225  0.000e+00
      1.932    15.5910 234.470408    288.794    7.34557   73.83527 4.6444e+02     1.5907    67.1878     0.1215     0.0214  0.000e+00
      1.974    15.5863 234.560958    288.939    7.29661   73.33590 4.5547e+02     1.5854    67.2766     0.1121     0.0217  0.000e+00
      2.019    15.5836 234.530779    288.921    7.24619   72.82494 4.3674e+02     1.5871    67.2487     0.1321     0.0223  0.000e+00
      2.068    15.5812 234.410055    288.790    7.19907   72.34757 4.2284e+02     1.5802    67.3638     0.1243     0.0204  0.000e+00
      2.110    15.5768 234.651514    289.118    7.15335   71.88150 4.2717e+02     1.5882    67.2306     0.1106     0.0209  0.000e+00
      2.146    15.5755 234.621334    289.090    7.10590   71.40266 4.3528e+02     1.5804    67.3605     0.1026     0.0204  0.000e+00
      2.192    15.5784 234.410060    288.809    7.06927   71.03896 4.3904e+02     1.5922    67.1631     0.1076     0.0208  0.000e+00
      2.243    15.5763 234.289336    288.675    7.03641   70.70562 4.0924e+02     1.5941    67.1302     0.1070     0.0207  0.000e+00
      2.290    15.5738 234.349702    288.768    7.00493   70.38553 3.9762e+02     1.5937    67.1385     0.1009     0.0203  0.000e+00
      2.341    15.5721 234.289342    288.705    6.98087   70.14118 4.0339e+02     1.6114    66.8407     0.1003     0.0207  0.000e+00
      2.399    15.5666 234.289347    288.745    6.95607   69.88381 3.9609e+02     1.6146    66.7881     0.1022     0.0211  0.000e+00
      2.450    15.5561 234.470446    289.043    6.93606   69.66713 4.0367e+02     1.6168    66.7502     0.1019     0.0210  0.000e+00
      2.490    15.5445 234.621365    289.312    6.91114   69.39969 4.0510e+02     1.6157    66.7700     0.1027     0.0194  0.000e+00
      2.526    15.5371 234.651553    289.402    6.89226   69.19911 3.7940e+02     1.6288    66.5512     0.1043     0.0201  0.000e+00
      2.561    15.5687 234.470439    288.953    6.86552   68.97715 3.7207e+02     1.6244    66.6236     0.1069     0.0202  0.000e+00
      2.592    15.6092 234.349682    288.516    6.84314   68.81186 3.8632e+02     1.6386    66.3883     0.1091     0.0202  0.000e+00
      2.622    15.6396 234.259115    288.189    6.82625   68.68642 3.9166e+02     1.6490    66.2156     0.1064     0.0210  0.000e+00
      2.660    15.6671 234.047826    287.734    6.80720   68.53483 3.7913e+02     1.6435    66.3077     0.1051     0.0215  0.000e+00
      2.710    15.6681 233.896921    287.542    6.78846   68.34751 3.6584e+02     1.6525    66.1580     0.1058     0.0208  0.000e+00
      2.762    15.6209 233.896958    287.875    6.78830   68.27734 3.5746e+02     1.6519    66.1679     0.1106     0.0208  0.000e+00
      2.815    15.5418 233.927200    288.474    6.79839   68.26345 3.5470e+02     1.6510    66.1827     0.1192     0.0216  0.000e+00
      2.870    15.4754 233.987614    289.023    6.81463   68.32947 3.5489e+02     1.6658    65.9376     0.1252     0.0221  0.000e+00
      2.919    15.4370 234.259276    289.633    6.82798   68.40718 3.6017e+02     1.6988    65.3964     0.1343     0.0227  0.000e+00
      2.961    15.4089 234.349843    289.946    6.83668   68.45313 3.3833e+02     1.7126    65.1710     0.1395     0.0233  0.000e+00
      3.001    15.3925 234.259311    289.953    6.84280   68.49030 3.2745e+02     1.7215    65.0263     0.1472     0.0228  0.000e+00
      3.042    15.4164 234.048025    289.519    6.83142   68.41143 3.3057e+02     1.7430    64.6775     0.1565     0.0234  0.000e+00
      3.082    15.4385 233.897104    289.175    6.81830   68.31220 3.3237e+02     1.7654    64.3173     0.1585     0.0238  0.000e+00
      3.122    15.4447 233.927281    289.167    6.79256   68.06341 3.2658e+02     1.8120    63.5721     0.1617     0.0226  0.000e+00
      3.161    15.4567 233.927272    289.082    6.76663   67.82105 3.2208e+02     1.8177    63.4816     0.1700     0.0231  0.000e+00
      3.204    15.4818 233.987616    288.977    6.73351   67.52527 3.1994e+02     1.8414    63.1066     0.1734     0.0231  0.000e+00
      3.248    15.5028 234.047964    288.901    6.69862   67.20564 3.1244e+02     1.8655    62.7266     0.1925     0.0227  0.000e+00
      3.288    15.5209 234.108313    288.847    6.66850   66.92926 3.0667e+02     1.8968    62.2380     0.2265     0.0234  0.000e+00
      3.326    15.5414 234.198842    288.813    6.62984   66.57044 3.0726e+02     1.9054    62.1048     0.2210     0.0231  0.000e+00
      3.363    15.5540 234.108290    288.611    6.59059   66.19408 3.0436e+02     1.9228    61.8350     0.2110     0.0237  0.000e+00
      3.409    15.5549 233.836661    288.270    6.56769   65.96523 2.9184e+02     1.9360    61.6310     0.2032     0.0249  0.000e+00
      3.461    15.5438 233.776309    288.275    6.54035   65.67505 2.7910e+02     1.9439    61.5093     0.2158     0.0259  0.000e+00
      3.513    15.5111 233.715973    288.432    6.52625   65.48787 2.7419e+02     1.9268    61.7725     0.2212     0.0266  0.000e+00
      3.572    15.4751 233.716002    288.689    6.51802   65.35490 2.7237e+02     1.9437    61.5126     0.2221     0.0260  0.000e+00
      3.626    15.4382 233.927297    289.214    6.51598   65.28294 2.7037e+02     1.9538    61.3579     0.2399     0.0267  0.000e+00
      3.672    15.4189 234.048037    289.502    6.50858   65.18178 2.6204e+02     1.9542    61.3514     0.2427     0.0254  0.000e+00
      3.711    15.3974 234.078235    289.693    6.50968   65.16281 2.5811e+02     1.9558    61.3267     0.2293     0.0252  0.000e+00
      3.743    15.3851 234.108426    289.819    6.50178   65.06666 2.5446e+02     1.9591    61.2757     0.2200     0.0259  0.000e+00
      3.770    15.4219 233.987674    289.406    6.48546   64.95442 2.5064e+02     1.9668    61.1589     0.2224     0.0261  0.000e+00
      3.803    15.4471 233.776389    288.964    6.47113   64.84589 2.4749e+02     1.9549    61.3415     0.2748     0.0262  0.000e+00
      3.835    15.4332 233.625497    288.877    6.45200   64.63492 2.4836e+02     1.9648    61.1885     0.2966     0.0262  0.000e+00
      3.873    15.4210 233.655688    289.001    6.43318   64.42957 2.4391e+02     1.9539    61.3563     0.3027     0.0257  0.000e+00
      3.920    15.4152 233.504791    288.856    6.42103   64.29984 2.3408e+02     1.9731    61.0618     0.3021     0.0262  0.000e+00
      3.968    15.3908 233.655713    289.217    6.41994   64.25538 2.2493e+02     1.9809    60.9434     0.2916     0.0266  0.000e+00
      4.019    15.3536 233.685923    289.522    6.42867   64.29144 2.1992e+02     1.9703    61.1046     0.2689     0.0269  0.000e+00
      4.075    15.3430 233.655752    289.560    6.43518   64.34199 2.2043e+02     1.9793    60.9681     0.2629     0.0275  0.000e+00
      4.128    15.3100 233.685959    289.835    6.44154   64.36004 2.1877e+02     1.9984    60.6769     0.2974     0.0264  0.000e+00
      4.173    15.2699 233.897256    290.385    6.45697   64.45876 2.1110e+02     2.0015    60.6309     0.3297     0.0283  0.000e+00
      4.215    15.2655 233.897260    290.417    6.45800   64.46293 2.0399e+02     2.0141    60.4400     0.3599     0.0282  0.000e+00
      4.255    15.2538 233.897270    290.502    6.45684   64.43527 2.0206e+02     1.9991    60.6670     0.3517     0.0282  0.000e+00
      4.291    15.2373 233.776560    290.471    6.44401   64.28433 2.0082e+02     2.0032    60.6045     0.3449     0.0276  0.000e+00
      4.326    15.2311 233.595481    290.291    6.42304   64.06649 1.9587e+02     1.9852    60.8776     0.3275     0.0277  0.000e+00
      4.368    15.2300 233.414400    290.073    6.39680   63.80340 1.8970e+02     2.0017    60.6276     0.3107     0.0267  0.000e+00
      4.411    15.2303 233.414401    290.071    6.37886   63.62479 1.8513e+02     2.0009    60.6391     0.3216     0.0277  0.000e+00
      4.453    15.2166 233.474773    290.245    6.36817   63.49951 1.8101e+02     1.9858    60.8694     0.3463     0.0280  0.000e+00
      4.491    15.2009 233.655869    290.584    6.36813   63.47766 1.7848e+02     1.9799    60.9582     0.3791     0.0278  0.000e+00
      4.526    15.1952 233.776597    290.775    6.37404   63.52887 1.7767e+02     1.9786    60.9779     0.3696     0.0291  0.000e+00
      4.557    15.1910 233.716239    290.731    6.38246   63.60706 1.7381e+02     1.9691    61.1227     0.3619     0.0293  0.000e+00
      4.582    15.1887 233.776603    290.822    6.38939   63.67308 1.6899e+02     1.9820    60.9270     0.4219     0.0285  0.000e+00
      4.613    15.1942 233.474794    290.407    6.38567   63.64331 1.6604e+02     1.9915    60.7822     0.3950     0.0275  0.000e+00
      4.662    15.1856 233.052280    289.943    6.37847   63.55976 1.6444e+02     1.9876    60.8414     0.3651     0.0277  0.000e+00
      4.719    15.1018 232.690191    290.098    6.37886   63.44920 1.6355e+02     1.9958    60.7164     0.3468     0.0269  0.000e+00
      4.780    14.8705 232.177327    291.138    6.41907   63.53121 1.5980e+02     1.9968    60.7016     0.3342     0.0270  0.000e+00
      4.845    14.6100 231.845563    292.634    6.49611   63.93198 1.5309e+02     1.9966    60.7049     0.3329     0.0274  0.000e+00
      4.902    14.4172 232.238029    294.564    6.59821   64.66525 1.4767e+02     2.0292    60.2114     0.3304     0.0286  0.000e+00
      4.949    14.3674 232.841649    295.703    6.69311   65.52426 1.4461e+02     2.0554    59.8182     0.3278     0.0299  0.000e+00
      4.991    14.3904 233.052890    295.798    6.77880   66.39658 1.4378e+02     2.0262    60.2574     0.3294     0.0295  0.000e+00
      5.027    14.3740 233.143443    296.037    6.84687   67.03929 1.4239e+02     2.0339    60.1406     0.3549     0.0305  0.000e+00
      5.059    14.3237 232.811505    295.994    6.89555   67.44184 1.3969e+02     2.0269    60.2459     0.3526     0.0297  0.000e+00
      5.094    14.2671 232.147610    295.575    6.91237   67.52267 1.3591e+02     2.0207    60.3397     0.3426     0.0284  0.000e+00
      5.133    14.2210 231.574262    295.192    6.89443   67.27951 1.3198e+02     2.0264    60.2541     0.3661     0.0282  0.000e+00
      5.173    14.1258 231.302737    295.563    6.86616   66.86426 1.2954e+02     2.0351    60.1225     0.3709     0.0285  0.000e+00
      5.219    14.0384 231.242449    296.148    6.84036   66.48563 1.2740e+02     2.0429    60.0058     0.3670     0.0284  0.000e+00
      5.265    13.9876 231.302843    296.611    6.82961   66.30721 1.2602e+02     2.0396    60.0551     0.3447     0.0288  0.000e+00
      5.304    13.9636 232.057308    297.762    6.83216   66.29726 1.2363e+02     2.0461    59.9580     0.4195     0.0288  0.000e+00
      5.335    13.9715 232.570343    298.360    6.84604   66.44355 1.2037e+02     2.0625    59.7129     0.4704     0.0300  0.000e+00
      5.362    13.9645 232.630707    298.491    6.87233   66.68847 1.1723e+02     2.0628    59.7080     0.4411     0.0320  0.000e+00
      5.394    13.9309 231.936622    297.857    6.90410   66.94727 1.1535e+02     2.0729    59.5583     0.4119     0.0303  0.000e+00
      5.436    13.9011 230.880433    296.728    6.91315   66.99079 1.1400e+02     2.0557    59.8149     0.4940     0.0313  0.000e+00
      5.481    13.8781 230.367454    296.244    6.91301   66.95550 1.1241e+02     2.0805    59.4448     0.5273     0.0317  0.000e+00
      5.535    13.8443 229.643269    295.570    6.92010   66.97418 1.0893e+02     2.0825    59.4152     0.5156     0.0320  0.000e+00
      5.596    13.7964 228.164788    294.029    6.93883   67.08435 1.0511e+02     2.0987    59.1750     0.5216     0.0320  0.000e+00
      5.659    13.7323 227.621733    293.814    6.98149   67.40144 1.0282e+02     2.1330    58.6700     0.5068     0.0302  0.000e+00
      5.714    13.6717 228.164882    294.978    7.04419   67.91599 1.0094e+02     2.1431    58.5220     0.4856     0.0306  0.000e+00
      5.765    13.6491 228.587324    295.696    7.12425   68.65388 9.8158e+01     2.1500    58.4200     0.4830     0.0311  0.000e+00
      5.811    13.6469 229.522723    296.923    7.20179   69.39793 9.7247e+01     2.1267    58.7621     0.4799     0.0301  0.000e+00
      5.849    13.6455 230.277108    297.910    7.26567   70.01160 9.5049e+01     2.1064    59.0615     0.5071     0.0307  0.000e+00
      5.888    13.6333 229.703784    297.262    7.30415   70.36319 9.3015e+01     2.1024    59.1207     0.5195     0.0311  0.000e+00
      5.927    13.6170 229.492573    297.114    7.30302   70.32691 9.1009e+01     2.1069    59.0533     0.5369     0.0285  0.000e+00
      5.956    13.6079 230.216787    298.122    7.27122   70.00686 8.9690e+01     2.0846    59.3839     0.5062     0.0284  0.000e+00
      5.984    13.6031 230.216791    298.159    7.21427   69.45120 8.8437e+01     2.0784    59.4761     0.4720     0.0282  0.000e+00
      6.015    13.5988 229.764163    297.606    7.14554   68.78290 8.6712e+01     2.0645    59.6833     0.4817     0.0288  0.000e+00
      6.045    13.5990 229.915040    297.800    7.06460   68.00402 8.4812e+01     2.0016    60.6292     0.4726     0.0278  0.000e+00
      6.075    13.6026 229.643461    297.421    6.99623   67.35120 8.3289e+01     1.9721    61.0783     0.4302     0.0287  0.000e+00
      6.116    13.6072 228.376150    295.744    6.93629   66.78065 8.1679e+01     1.9780    60.9878     0.4554     0.0294  0.000e+00
      6.164    13.5988 227.470983    294.635    6.88597   66.28368 7.9903e+01     1.9586    61.2839     0.4337     0.0297  0.000e+00
      6.216    13.5691 227.108948    294.393    6.86629   66.05083 7.7727e+01     1.9588    61.2806     0.4257     0.0294  0.000e+00
      6.271    13.5417 226.505553    293.820    6.84348   65.79139 7.6520e+01     1.9940    60.7444     0.4049     0.0295  0.000e+00
      6.333    13.5158 225.540143    292.765    6.88218   66.12528 7.4239e+01     1.9838    60.8990     0.4526     0.0298  0.000e+00
      6.397    13.4863 224.635116    291.813    6.92365   66.48014 7.2027e+01     1.9813    60.9368     0.4662     0.0298  0.000e+00
      6.457    13.4614 224.514465    291.845    6.99120   67.09162 7.0040e+01     1.9877    60.8398     0.4598     0.0291  0.000e+00
      6.508    13.4457 225.510029    293.259    7.08075   67.92766 6.8505e+01     1.9744    61.0421     0.4599     0.0282  0.000e+00
      6.546    13.4532 227.290069    295.516    7.17603   68.85368 6.7524e+01     1.9398    61.5734     0.4816     0.0281  0.000e+00
      6.575    13.4619 228.165057    296.587    7.26539   69.72464 6.6744e+01     1.9145    61.9633     0.4687     0.0271  0.000e+00
      6.597    13.4496 228.376277    296.957    7.32569   70.28421 6.5927e+01     1.9258    61.7889     0.5159     0.0263  0.000e+00
      6.621    13.4384 228.044384    296.612    7.35387   70.53705 6.4926e+01     1.9356    61.6376     0.5068     0.0266  0.000e+00
      6.653    13.4632 227.078864    295.165    7.33323   70.37753 6.3704e+01     1.9056    62.1015     0.4600     0.0253  0.000e+00
      6.695    13.5003 225.992702    293.470    7.28803   70.00083 6.2461e+01     1.9524    61.3793     0.4429     0.0253  0.000e+00
      6.742    13.5132 225.178129    292.315    7.22481   69.41322 6.1092e+01     1.9699    61.1112     0.4999     0.0257  0.000e+00
      6.791    13.5059 224.755781    291.822    7.15620   68.74277 6.0354e+01     1.9323    61.6886     0.4814     0.0266  0.000e+00
      6.843    13.4946 224.303277    291.319    7.09393   68.12746 5.8741e+01     1.9222    61.8449     0.5460     0.0265  0.000e+00
      6.893    13.4763 224.152456    291.262    7.04971   67.67533 5.7040e+01     1.9490    61.4320     0.6465     0.0274  0.000e+00
      6.938    13.4562 224.333475    291.650    7.02975   67.45371 5.5799e+01     1.9226    61.8383     0.6395     0.0288  0.000e+00
      6.980    13.4459 224.816164    292.356    7.03771   67.51486 5.4681e+01     1.9164    61.9337     0.5772     0.0295  0.000e+00
      7.021    13.4495 224.876499    292.406    7.05564   67.69227 5.3576e+01     1.9223    61.8432     0.5162     0.0294  0.000e+00
      7.065    13.4551 224.242976    291.540    7.07289   67.86604 5.2392e+01     1.9021    62.1558     0.5441     0.0309  0.000e+00
      7.114    13.4446 224.031816    291.346    7.08005   67.91883 5.1333e+01     1.9330    61.6771     0.4895     0.0288  0.000e+00
      7.162    13.4218 223.669835    291.047    7.08237   67.90680 5.0199e+01     1.9166    61.9304     0.4321     0.0279  0.000e+00
      7.212    13.3970 223.217365    290.646    7.07225   67.77236 4.8822e+01     1.8931    62.2956     0.4189     0.0274  0.000e+00
      7.262    13.3713 222.945896    290.487    7.06366   67.65138 4.7759e+01     1.9050    62.1114     0.4466     0.0273  0.000e+00
      7.301    13.3505 222.976077    290.684    7.05257   67.51410 4.7075e+01     1.9032    62.1393     0.4008     0.0275  0.000e+00
      7.337    13.3409 222.945919    290.718    7.04511   67.42818 4.6654e+01     1.8921    62.3120     0.3493     0.0274  0.000e+00
      7.375    13.3385 222.855426    290.617    7.05260   67.49638 4.6010e+01     1.9120    62.0028     0.3631     0.0264  0.000e+00
      7.412    13.3345 222.976091    290.805    7.07835   67.73684 4.5231e+01     1.8950    62.2660     0.4407     0.0256  0.000e+00
      7.450    13.3297 222.855434    290.685    7.10905   68.02321 4.4504e+01     1.8941    62.2808     0.4200     0.0272  0.000e+00
      7.500    13.3225 222.463298    290.228    7.13931   68.30180 4.3444e+01     1.8887    62.3647     0.4401     0.0282  0.000e+00
      7.547    13.3092 222.101337    289.856    7.17481   68.62104 4.2446e+01     1.8791    62.5144     0.4100     0.0283  0.000e+00
      7.596    13.2948 221.739383    289.492    7.21211   68.95577 4.1588e+01     1.8551    62.8911     0.3829     0.0285  0.000e+00
      7.646    13.2825 221.377434    289.112    7.25307   69.32835 4.0404e+01     1.8657    62.7233     0.3754     0.0278  0.000e+00
      7.694    13.2706 221.256793    289.045    7.30369   69.79363 3.9420e+01     1.8314    63.2645     0.3512     0.0271  0.000e+00
      7.739    13.2599 221.226638    289.086    7.36588   70.37124 3.8426e+01     1.8438    63.0687     0.4057     0.0264  0.000e+00
      7.780    13.2545 221.377457    289.324    7.43593   71.03184 3.7663e+01     1.8541    62.9059     0.4520     0.0269  0.000e+00
      7.817    13.2535 221.498111    289.489    7.51271   71.76387 3.7083e+01     1.8555    62.8845     0.4705     0.0270  0.000e+00
      7.852    13.2571 221.528273    289.502    7.57156   72.33166 3.6771e+01     1.8350    63.2069     0.4417     0.0259  0.000e+00
      7.888    13.2619 221.558433    289.505    7.60626   72.67101 3.6110e+01     1.8105    63.5951     0.4221     0.0256  0.000e+00
      7.923    13.2631 221.739413    289.732    7.61511   72.75757 3.5530e+01     1.8194    63.4537     0.3716     0.0262  0.000e+00
      7.960    13.2632 221.739414    289.731    7.60566   72.66747 3.4903e+01     1.8451    63.0474     0.3368     0.0269  0.000e+00
      8.001    13.2622 221.739415    289.739    7.58268   72.44620 3.4227e+01     1.8214    63.4224     0.3825     0.0259  0.000e+00
      8.043    13.2567 221.588603    289.583    7.54898   72.11544 3.3647e+01     1.8094    63.6132     0.4451     0.0253  0.000e+00
      8.085    13.2494 221.377467    289.363    7.52588   71.88304 3.3007e+01     1.8132    63.5524     0.5620     0.0249  0.000e+00
      8.129    13.2423 221.196496    289.180    7.52253   71.83967 3.2380e+01     1.7810    64.0656     0.5112     0.0243  0.000e+00
      8.175    13.2341 221.045690    289.045    7.54420   72.03349 3.1652e+01     1.7712    64.2235     0.4208     0.0246  0.000e+00
      8.225    13.2281 220.744073    288.695    7.58810   72.44291 3.0919e+01     1.7743    64.1742     0.3561     0.0256  0.000e+00
      8.275    13.2236 220.623429    288.572    7.65647   73.08814 3.0134e+01     1.7753    64.1577     0.3497     0.0267  0.000e+00
      8.324    13.2173 220.532949    288.501    7.73430   73.82079 2.9701e+01     1.7702    64.2400     0.3613     0.0243  0.000e+00
      8.373    13.2105 220.502793    288.513    7.81298   74.56057 2.9146e+01     1.7509    64.5509     0.3354     0.0246  0.000e+00
      8.417    13.2059 220.532959    288.587    7.89598   75.34486 2.8542e+01     1.7672    64.2877     0.3257     0.0267  0.000e+00
      8.455    13.2050 221.045717    289.265    7.95539   75.91043 2.8023e+01     1.7671    64.2893     0.3288     0.0266  0.000e+00
      8.483    13.2091 221.829954    290.260    7.98590   76.20869 2.7679e+01     1.7613    64.3831     0.3700     0.0259  0.000e+00
      8.511    13.2205 222.282406    290.765    7.98992   76.26652 2.7258e+01     1.7542    64.4966     0.3503     0.0257  0.000e+00
      8.538    13.2294 222.463387    290.934    7.96398   76.03406 2.6895e+01     1.7668    64.2943     0.3136     0.0249  0.000e+00
      8.568    13.2336 222.403055    290.824    7.91202   75.54499 2.6617e+01     1.7739    64.1808     0.2969     0.0254  0.000e+00
      8.604    13.2360 222.161740    290.489    7.83491   74.81272 2.6152e+01     1.7868    63.9735     0.3259     0.0253  0.000e+00
      8.642    13.2381 221.498139    289.606    7.75698   74.07177 2.5677e+01     1.7669    64.2926     0.3411     0.0256  0.000e+00
      8.685    13.2358 221.166350    289.190    7.67308   73.26672 2.5042e+01     1.8000    63.7629     0.3443     0.0260  0.000e+00
      8.734    13.2263 220.683761    288.630    7.60569   72.60778 2.4474e+01     1.7634    64.3485     0.4183     0.0277  0.000e+00
      8.785    13.2144 220.261507    288.168    7.56950   72.24300 2.4136e+01     1.7716    64.2169     0.4630     0.0275  0.000e+00
      8.836    13.2023 220.050388    287.983    7.57127   72.24050 2.3518e+01     1.7774    64.1248     0.4211     0.0262  0.000e+00
      8.882    13.1936 220.050395    288.049    7.61049   72.60063 2.2997e+01     1.7860    63.9866     0.4123     0.0266  0.000e+00
      8.922    13.1888 220.261528    288.361    7.68399   73.29408 2.2535e+01     1.7806    64.0722     0.4614     0.0259  0.000e+00
      8.956    13.1897 220.683791    288.907    7.76907   74.10731 2.2220e+01     1.7739    64.1808     0.4637     0.0257  0.000e+00
      8.988    13.2002 220.894920    289.104    7.84553   74.85406 2.1904e+01     1.7556    64.4752     0.4472     0.0243  0.000e+00
      9.023    13.2139 220.623452    288.645    7.89641   75.36233 2.1582e+01     1.7532    64.5130     0.5911     0.0272  0.000e+00
      9.065    13.2190 220.472640    288.409    7.90892   75.49034 2.1272e+01     1.7864    63.9801     0.5943     0.0263  0.000e+00
      9.110    13.2126 220.382161    288.339    7.88539   75.25494 2.0845e+01     1.7877    63.9587     0.5251     0.0246  0.000e+00
      9.156    13.2023 220.171039    288.141    7.84149   74.81878 2.0451e+01     1.7714    64.2202     0.4324     0.0268  0.000e+00
      9.200    13.1932 220.050402    288.052    7.79768   74.38562 2.0083e+01     1.8273    63.3287     0.3887     0.0260  0.000e+00
      9.246    13.1861 219.959925    287.987    7.78045   74.20952 1.9638e+01     1.8267    63.3385     0.4108     0.0256  0.000e+00
      9.289    13.1803 219.929769    287.991    7.78748   74.26698 1.9431e+01     1.7796    64.0886     0.4857     0.0259  0.000e+00
      9.330    13.1761 219.990095    288.101    7.82135   74.58315 1.9138e+01     1.7820    64.0508     0.4863     0.0271  0.000e+00
      9.371    13.1748 219.990097    288.112    7.88881   75.22418 1.8730e+01     1.7783    64.1100     0.4744     0.0272  0.000e+00
      9.409    13.1752 220.201225    288.385    7.95545   75.86050 1.8331e+01     1.7940    63.8583     0.4425     0.0274  0.000e+00
      9.444    13.1786 220.382192    288.596    8.01008   76.38716 1.8045e+01     1.7771    64.1281     0.3780     0.0262  0.000e+00
      9.483    13.1844 220.110737    288.197    8.04345   76.71516 1.7611e+01     1.7791    64.0969     0.3700     0.0262  0.000e+00
      9.524    13.1862 220.110736    288.183    8.04287   76.71275 1.7172e+01     1.7873    63.9653     0.3433     0.0269  0.000e+00
      9.563    13.1842 220.171061    288.278    8.01583   76.45137 1.6877e+01     1.7866    63.9768     0.3082     0.0268  0.000e+00
      9.603    13.1823 220.110741    288.213    7.97945   76.10130 1.6558e+01     1.8088    63.6231     0.3380     0.0262  0.000e+00
      9.646    13.1793 219.990099    288.078    7.93649   75.68642 1.6239e+01     1.7853    63.9982     0.3513     0.0259  0.000e+00
      9.681    13.1752 220.382199    288.622    7.90273   75.35777 1.6003e+01     1.7688    64.2614     0.3753     0.0262  0.000e+00
      9.709    13.1750 220.623494    288.940    7.88994   75.23549 1.5854e+01     1.8435    63.0737     0.5656     0.0262  0.000e+00
      9.740    13.1788 220.744140    289.069    7.88677   75.21164 1.5750e+01     1.7877    63.9587     0.6627     0.0261  0.000e+00
      9.776    13.1818 220.321874    288.493    7.89291   75.27510 1.5529e+01     1.8248    63.3681     0.5844     0.0255  0.000e+00
      9.819    13.1810 220.110746    288.222    7.89481   75.29187 1.5198e+01     1.7806    64.0722     0.5611     0.0254  0.000e+00
      9.867    13.1771 219.869462    287.936    7.89446   75.28184 1.4918e+01     1.7667    64.2959     0.4881     0.0261  0.000e+00
      9.923    13.1721 219.477380    287.460    7.88831   75.21479 1.4559e+01     1.7876    63.9603     0.4271     0.0269  0.000e+00
      9.982    13.1662 219.326585    287.307    7.88509   75.17412 1.4153e+01     1.8002    63.7596     0.4103     0.0259  0.000e+00
     10.039    13.1617 219.266269    287.262    7.89314   75.24334 1.3790e+01     1.7955    63.8353     0.3998     0.0254  0.000e+00
     10.093    13.1610 219.326591    287.346    7.91555   75.45584 1.3436e+01     1.7792    64.0952     0.4085     0.0239  0.000e+00
     10.146    13.1620 219.205952    287.181    7.95197   75.80464 1.3061e+01     1.7865    63.9784     0.5372     0.0234  0.000e+00
     10.189    13.1627 219.507553    287.570    7.98091   76.08188 1.2811e+01     1.8081    63.6346     0.5570     0.0250  0.000e+00
     10.220    13.1673 220.261570    288.523    8.00574   76.32660 1.2671e+01     1.8143    63.5359     0.5164     0.0245  0.000e+00
     10.245    13.1763 220.804476    289.167    8.01966   76.47470 1.2489e+01     1.8059    63.6692     0.4519     0.0238  0.000e+00
     10.263    13.1795 221.256911    289.735    8.02916   76.57098 1.2431e+01     1.8091    63.6182     0.3997     0.0239  0.000e+00
     10.278    13.1782 221.377564    289.903    8.01898   76.47158 1.2307e+01     1.7716    64.2169     0.3668     0.0241  0.000e+00
     10.298    13.1768 221.196589    289.676    7.99575   76.24774 1.2177e+01     1.7746    64.1692     0.3207     0.0274  0.000e+00
     10.331    13.1895 220.683820    288.909    7.95222   75.85383 1.1978e+01     1.7812    64.0640     0.3074     0.0262  0.000e+00
     10.372    13.2010 220.261549    288.269    7.89905   75.36587 1.1763e+01     1.7631    64.3535     0.3417     0.0256  0.000e+00
     10.420    13.2020 219.869456    287.748    7.85783   74.97415 1.1526e+01     1.7727    64.1989     0.3731     0.0262  0.000e+00
     10.470    13.1994 219.598013    287.412    7.83730   74.77384 1.1258e+01     1.7614    64.3814     0.3507     0.0251  0.000e+00
     10.521    13.1933 219.326577    287.103    7.85098   74.89409 1.0990e+01     1.7663    64.3025     0.3249     0.0257  0.000e+00
     10.579    13.1846 219.024986    286.773    7.89504   75.29979 1.0685e+01     1.7699    64.2449     0.3561     0.0256  0.000e+00
     10.638    13.1755 218.874197    286.645    7.96854   75.98541 1.0408e+01     1.7904    63.9159     0.3980     0.0253  0.000e+00
     10.695    13.1682 218.904362    286.739    8.04919   76.74197 1.0140e+01     1.7802    64.0788     0.3786     0.0249  0.000e+00
     10.751    13.1629 218.874208    286.739    8.12717   77.47625 9.9180e+00     1.8104    63.5968     0.3900     0.0244  0.000e+00
     10.796    13.1590 219.055169    287.005    8.19783   78.14318 9.7974e+00     1.7945    63.8501     0.3756     0.0242  0.000e+00
     10.832    13.1598 219.326607    287.355    8.24836   78.62626 9.6405e+00     1.7605    64.3963     0.3532     0.0233  0.000e+00
     10.865    13.1652 219.326604    287.314    8.29185   79.05041 9.5030e+00     1.8085    63.6280     0.3709     0.0230  0.000e+00
     10.895    13.1691 219.477402    287.483    8.34208   79.53616 9.3524e+00     1.7976    63.8008     0.3735     0.0234  0.000e+00
     10.922    13.1697 219.869489    287.992    8.40354   80.12341 9.2633e+00     1.7814    64.0607     0.3874     0.0251  0.000e+00
     10.949    13.1708 220.050454    288.221    8.47789   80.83430 9.1457e+00     1.7917    63.8945     0.4635     0.0266  0.000e+00
     10.978    13.1720 219.929810    288.054    8.55258   81.54852 9.0087e+00     1.8159    63.5096     0.5201     0.0252  0.000e+00
     11.007    13.1722 219.748846    287.815    8.62245   82.21504 8.8424e+00     1.7781    64.1133     0.5232     0.0248  0.000e+00
     11.044    13.1717 219.507564    287.503    8.66456   82.61561 8.6636e+00     1.8059    63.6692     0.5077     0.0249  0.000e+00
     11.090    13.1695 219.326605    287.282    8.68964   82.85063 8.4374e+00     1.7900    63.9225     0.4379     0.0249  0.000e+00
     11.143    13.1648 219.085331    287.001    8.67960   82.74617 8.2228e+00     1.8047    63.6873     0.3991     0.0294  0.000e+00
     11.194    13.1582 218.964699    286.893    8.65988   82.54597 8.0122e+00     1.8010    63.7465     0.4175     0.0295  0.000e+00
     11.244    13.1530 219.025022    287.012    8.62214   82.17673 7.9301e+00     1.7687    64.2630     0.3954     0.0282  0.000e+00
     11.291    13.1506 218.964706    286.950    8.59335   81.89798 7.7214e+00     1.7988    63.7827     0.4182     0.0262  0.000e+00
     11.335    13.1496 218.964708    286.958    8.55808   81.56006 7.5463e+00     1.7908    63.9093     0.4294     0.0261  0.000e+00
     11.377    13.1488 219.055188    287.083    8.50798   81.08108 7.3816e+00     1.7793    64.0936     0.4139     0.0259  0.000e+00
     11.416    13.1486 219.085348    287.124    8.44996   80.52777 7.2747e+00     1.7771    64.1281     0.3817     0.0245  0.000e+00
     11.454    13.1489 219.115509    287.161    8.38688   79.92724 7.1401e+00     1.7975    63.8024     0.3447     0.0240  0.000e+00
     11.486    13.1493 219.266308    287.355    8.31030   79.19815 7.0441e+00     1.8262    63.3467     0.3294     0.0238  0.000e+00
     11.518    13.1510 219.326627    287.422    8.22538   78.39183 6.9297e+00     1.7807    64.0705     0.3010     0.0244  0.000e+00
     11.556    13.1539 219.205986    287.242    8.14757   77.65523 6.8195e+00     1.7849    64.0047     0.2804     0.0256  0.000e+00
     11.602    13.1553 219.115507    287.113    8.06655   76.88538 6.6622e+00     1.7730    64.1939     0.2682     0.0262  0.000e+00
     11.652    13.1538 219.025030    287.005    8.00357   76.28256 6.5016e+00     1.7974    63.8041     0.3892     0.0253  0.000e+00
     11.703    13.1513 218.904395    286.866    7.96809   75.94023 6.3606e+00     1.8001    63.7613     0.4411     0.0247  0.000e+00
     11.750    13.1479 218.844080    286.813    7.94836   75.74635 6.2571e+00     1.8007    63.7514     0.4333     0.0246  0.000e+00
     11.794    13.1448 218.904402    286.915    7.95788   75.83185 6.1214e+00     1.7880    63.9537     0.3828     0.0244  0.000e+00
     11.840    13.1434 218.964723    287.005    7.98429   76.08117 5.9789e+00     1.7875    63.9620     0.3262     0.0246  0.000e+00
     11.880    13.1430 218.904405    286.929    8.01822   76.40377 5.8522e+00     1.8115    63.5803     0.3007     0.0241  0.000e+00
     11.918    13.1433 219.025043    287.084    8.04924   76.69996 5.7037e+00     1.8257    63.3550     0.3296     0.0237  0.000e+00
     11.959    13.1434 219.085363    287.163    8.05910   76.79406 5.6018e+00     1.8266    63.3402     0.3907     0.0231  0.000e+00
     11.997    13.1439 219.115523    287.198    8.04199   76.63191 5.4849e+00     1.8015    63.7383     0.4474     0.0237  0.000e+00
     12.032    13.1450 219.145683    287.230    8.01016   76.33051 5.4022e+00     1.7649    64.3255     0.4006     0.0257  0.000e+00
     12.065    13.1460 219.266322    287.380    7.95803   75.83547 5.2980e+00     1.7874    63.9636     0.3407     0.0260  0.000e+00
     12.097    13.1479 219.266322    287.366    7.88651   75.15704 5.2078e+00     1.8136    63.5458     0.3245     0.0259  0.000e+00
     12.133    13.1494 219.175842    287.236    7.81529   74.48092 5.1458e+00     1.7914    63.8995     0.3176     0.0238  0.000e+00
     12.169    13.1491 219.206002    287.278    7.74312   73.79254 5.0763e+00     1.8286    63.3089     0.3397     0.0244  0.000e+00
     12.202    13.1477 219.206004    287.288    7.68392   73.22616 5.0239e+00     1.7783    64.1100     0.3481     0.0240  0.000e+00
     12.241    13.1462 219.085367    287.142    7.63690   72.77546 4.9552e+00     1.7864    63.9801     0.3973     0.0251  0.000e+00
     12.288    13.1440 218.964731    287.000    7.60197   72.43911 4.8559e+00     1.8101    63.6017     0.3834     0.0251  0.000e+00
     12.339    13.1404 218.753620    286.750    7.57680   72.19334 4.7382e+00     1.8206    63.4356     0.4391     0.0250  0.000e+00
     12.395    13.1360 218.693306    286.705    7.56850   72.10718 4.6366e+00     1.8199    63.4471     0.5034     0.0249  0.000e+00
     12.456    13.1313 218.632992    286.660    7.58622   72.26857 4.5031e+00     1.8186    63.4668     0.4982     0.0248  0.000e+00
     12.513    13.1279 218.542519    286.568    7.63760   72.75234 4.3678e+00     1.8084    63.6297     0.4659     0.0255  0.000e+00
     12.563    13.1259 218.632998    286.701    7.68595   73.20973 4.2640e+00     1.8327    63.2431     0.4124     0.0275  0.000e+00
     12.604    13.1267 218.753635    286.853    7.74153   73.74053 4.1724e+00     1.8176    63.4833     0.4565     0.0269  0.000e+00
     12.641    13.1318 218.813950    286.894    7.79068   74.21715 4.1025e+00     1.8007    63.7514     0.4315     0.0256  0.000e+00
     12.674    13.1376 219.085382    287.206    7.82307   74.53538 4.0302e+00     1.8273    63.3287     0.4104     0.0261  0.000e+00
     12.701    13.1414 219.537780    287.771    7.83298   74.63622 3.9977e+00     1.8194    63.4537     0.3835     0.0264  0.000e+00
     12.724    13.1418 219.869546    288.202    7.83058   74.61418 3.9548e+00     1.7762    64.1429     0.4264     0.0266  0.000e+00
     12.745    13.1392 220.050514    288.459    7.81750   74.48531 3.9109e+00     1.7969    63.8123     0.4550     0.0259  0.000e+00
     12.769    13.1364 220.110839    288.559    7.80396   74.35168 3.8759e+00     1.8420    63.0967     0.5362     0.0249  0.000e+00
     12.796    13.1351 219.960035    288.372    7.79413   74.25567 3.8302e+00     1.8041    63.6971     0.5631     0.0259  0.000e+00
     12.835    13.1349 219.567948    287.860    7.78910   74.20731 3.7659e+00     1.8419    63.0984     0.5038     0.0240  0.000e+00
     12.884    13.1360 219.055228    287.179    7.78952   74.21296 3.6754e+00     1.8125    63.5639     0.4279     0.0241  0.000e+00
     12.941    13.1342 218.813955    286.876    7.80013   74.31105 3.5748e+00     1.7943    63.8534     0.5052     0.0243  0.000e+00
     13.000    13.1292 218.602846    286.637    7.83644   74.64859 3.4713e+00     1.8008    63.7498     0.4687     0.0241  0.000e+00
     13.062    13.1258 218.512373    286.544    7.89605   75.21071 3.3640e+00     1.8003    63.7580     0.4428     0.0244  0.000e+00
     13.118    13.1241 218.421899    286.438    7.97344   75.94489 3.2652e+00     1.8284    63.3122     0.4479     0.0238  0.000e+00
     13.169    13.1229 218.512377    286.566    8.04792   76.65239 3.2021e+00     1.8041    63.6971     0.4601     0.0241  0.000e+00
     13.212    13.1226 218.542537    286.608    8.11479   77.28873 3.1635e+00     1.8054    63.6774     0.4363     0.0248  0.000e+00
     13.249    13.1231 218.693332    286.801    8.15203   77.64442 3.1079e+00     1.8360    63.1921     0.3956     0.0246  0.000e+00
     13.279    13.1252 218.964765    287.141    8.17754   77.89106 3.0527e+00     1.8383    63.1559     0.4257     0.0265  0.000e+00
     13.308    13.1299 219.145720    287.343    8.17986   77.92138 3.0115e+00     1.7963    63.8221     0.4177     0.0300  0.000e+00
     13.336    13.1322 219.175879    287.365    8.17611   77.88971 2.9628e+00     1.8063    63.6626     0.4124     0.0293  0.000e+00
     13.364    13.1322 219.266359    287.484    8.17466   77.87590 2.9027e+00     1.8277    63.3221     0.3944     0.0297  0.000e+00
     13.396    13.1313 219.025082    287.174    8.17677   77.89439 2.8454e+00     1.7963    63.8221     0.3701     0.0280  0.000e+00
     13.435    13.1296 218.813968    286.910    8.19607   78.07521 2.7907e+00     1.7851    64.0015     0.3671     0.0272  0.000e+00
     13.478    13.1261 218.753653    286.858    8.21599   78.25885 2.7275e+00     1.7821    64.0492     0.3354     0.0267  0.000e+00
     13.518    13.1221 218.693338    286.809    8.24988   78.57457 2.6682e+00     1.8324    63.2480     0.3130     0.0257  0.000e+00
     13.561    13.1188 218.633024    286.755    8.28515   78.90461 2.6220e+00     1.8949    62.2676     0.3028     0.0257  0.000e+00
     13.606    13.1161 218.542550    286.657    8.32134   79.24451 2.5630e+00     1.8510    62.9552     0.3463     0.0252  0.000e+00
     13.654    13.1132 218.512394    286.639    8.34231   79.43913 2.5306e+00     1.8710    62.6410     0.4175     0.0238  0.000e+00
     13.702    13.1108 218.421920    286.538    8.36095   79.61223 2.4776e+00     1.8031    63.7136     0.3813     0.0233  0.000e+00
     13.754    13.1088 218.391764    286.514    8.36110   79.61019 2.4121e+00     1.8451    63.0474     0.3777     0.0372  0.000e+00
     13.807    13.1070 218.331449    286.448    8.34202   79.42533 2.3577e+00     1.9115    62.0094     0.4115     0.0420  0.000e+00
     13.852    13.1059 218.331451    286.456    8.31128   79.13072 2.2885e+00     1.8630    62.7661     0.4155     0.0394  0.000e+00
     13.890    13.1055 218.421928    286.578    8.26483   78.68778 2.2511e+00     1.8366    63.1822     0.3677     0.0341  0.000e+00
     13.920    13.1077 218.572721    286.759    8.23588   78.41607 2.2212e+00     1.8663    62.7151     0.3755     0.0320  0.000e+00
     13.946    13.1121 218.602877    286.766    8.21350   78.21062 2.1857e+00     1.8553    62.8878     0.4449     0.0309  0.000e+00
     13.971    13.1151 218.633035    286.783    8.20702   78.15419 2.1551e+00     1.8352    63.2036     0.5046     0.0280  0.000e+00
     14.000    13.1163 218.602875    286.734    8.21900   78.27024 2.1194e+00     1.8219    63.4142     0.4800     0.0273  0.000e+00
     14.039    13.1155 218.572718    286.700    8.25089   78.57262 2.0763e+00     1.8804    62.4946     0.4344     0.0262  0.000e+00
     14.085    13.1126 218.421927    286.525    8.29543   78.99157 2.0240e+00     1.8541    62.9059     0.4386     0.0269  0.000e+00
     14.137    13.1088 218.331455    286.435    8.35363   79.53905 1.9780e+00     1.8688    62.6756     0.5625     0.0287  0.000e+00
     14.194    13.1058 218.271141    286.378    8.41187   80.08817 1.9167e+00     1.8411    63.1115     0.5336     0.0289  0.000e+00
     14.250    13.1038 218.271143    286.393    8.46227   80.56440 1.8428e+00     1.8739    62.5950     0.4846     0.0286  0.000e+00
     14.304    13.1031 218.271145    286.398    8.50511   80.97113 1.7911e+00     1.8771    62.5456     0.4193     0.0362  0.000e+00
     14.351    13.1035 218.331463    286.474    8.52783   81.18815 1.7437e+00     1.8380    63.1592     0.3902     0.0381  0.000e+00
     14.389    13.1044 218.331463    286.468    8.51607   81.07775 1.6891e+00     1.8397    63.1329     0.3719     0.0352  0.000e+00
     14.421    13.1061 218.421938    286.574    8.48013   80.73857 1.6586e+00     1.8353    63.2020     0.3390     0.0314  0.000e+00
     14.450    13.1086 218.512413    286.673    8.42071   80.17749 1.6110e+00     1.8152    63.5211     0.3033     0.0303  0.000e+00
     14.480    13.1116 218.482253    286.611    8.36134   79.61742 1.5772e+00     1.8007    63.7514     0.3130     0.0285  0.000e+00
     14.511    13.1137 218.512411    286.635    8.30451   79.07999 1.5452e+00     1.8341    63.2217     0.3804     0.0317  0.000e+00
     14.545    13.1137 218.482253    286.596    8.26323   78.68690 1.5150e+00     1.8262    63.3467     0.3505     0.0320  0.000e+00
     14.582    13.1119 218.512414    286.648    8.24718   78.53100 1.4800e+00     1.8371    63.1740     0.3315     0.0301  0.000e+00
     14.622    13.1099 218.391781    286.506    8.24706   78.52624 1.4652e+00     1.8551    62.8911     0.4321     0.0285  0.000e+00
     14.666    13.1077 218.331466    286.443    8.26539   78.69689 1.4241e+00     1.8395    63.1362     0.4369     0.0266  0.000e+00
     14.711    13.1059 218.331468    286.457    8.29360   78.96229 1.3893e+00     1.8449    63.0506     0.4269     0.0262  0.000e+00
     14.753    13.1042 218.271153    286.390    8.32147   79.22465 1.3538e+00     1.8528    62.9273     0.3670     0.0259  0.000e+00
     14.798    13.1029 218.271155    286.399    8.34000   79.39889 1.3214e+00     1.8943    62.2775     0.3152     0.0260  0.000e+00
     14.846    13.1015 218.271157    286.410    8.34659   79.45905 1.2819e+00     1.9253    61.7972     0.3046     0.0252  0.000e+00
     14.893    13.1001 218.271159    286.421    8.33016   79.30013 1.2551e+00     1.8579    62.8467     0.3256     0.0256  0.000e+00
     14.945    13.0991 218.210844    286.349    8.29580   78.97132 1.2253e+00     1.8076    63.6412     0.4337     0.0256  0.000e+00
     14.996    13.0981 218.210846    286.356    8.25058   78.53910 1.1920e+00     1.8632    62.7628     0.4855     0.0256  0.000e+00
     15.048    13.0970 218.150531    286.286    8.20018   78.05727 1.1579e+00     1.8167    63.4964     0.4775     0.0253  0.000e+00
     15.096    13.0963 218.180691    286.330    8.16299   77.70225 1.1371e+00     1.8773    62.5423     0.4398     0.0249  0.000e+00
     15.136    13.0963 218.210850    286.370    8.13937   77.47739 1.1264e+00     1.9075    62.0719     0.4520     0.0257  0.000e+00
     15.173    13.0966 218.271167    286.447    8.13603   77.44600 1.1200e+00     1.9052    62.1081     0.4392     0.0269  0.000e+00
     15.205    13.0966 218.391802    286.605    8.15831   77.65827 1.1028e+00     1.9003    62.1837     0.5204     0.0294  0.000e+00
     15.235    13.0979 218.482278    286.714    8.19907   78.04856 1.1051e+00     1.8425    63.0885     0.6803     0.0280  0.000e+00
     15.265    13.1007 218.452118    286.654    8.25177   78.55506 1.1072e+00     1.8207    63.4339     0.6825     0.0262  0.000e+00
     15.293    13.1034 218.452117    286.633    8.30793   79.09444 1.0805e+00     1.8411    63.1115     0.6135     0.0241  0.000e+00
     15.320    13.1048 218.421958    286.583    8.35494   79.54450 1.0760e+00     1.8385    63.1526     0.5284     0.0235  0.000e+00
     15.353    13.1056 218.452116    286.617    8.38610   79.84249 1.0605e+00     1.8321    63.2530     0.4784     0.0240  0.000e+00
     15.389    13.1056 218.421958    286.577    8.40674   80.03904 1.0484e+00     1.8127    63.5606     0.4308     0.0243  0.000e+00
     15.430    13.1044 218.391801    286.546    8.40031   79.97578 1.0197e+00     1.8295    63.2941     0.4530     0.0250  0.000e+00
     15.477    13.1025 218.271169    286.402    8.37309   79.71318 9.9915e-01     1.8576    62.8516     0.4501     0.0253  0.000e+00
     15.530    13.1002 218.210855    286.341    8.34234   79.41633 9.7523e-01     1.9168    61.9271     0.4236     0.0245  0.000e+00
     15.590    13.0982 218.180700    286.316    8.30882   79.09367 9.4926e-01     1.8381    63.1576     0.4596     0.0247  0.000e+00
     15.652    13.0964 218.090227    286.211    8.27660   78.78374 9.2036e-01     1.8734    62.6032     0.4974     0.0257  0.000e+00
     15.711    13.0956 218.120387    286.257    8.25383   78.56565 8.9243e-01     1.8783    62.5275     0.4803     0.0264  0.000e+00
     15.765    13.0955 218.150547    286.297    8.22692   78.30922 8.6107e-01     1.8779    62.5325     0.5016     0.0260  0.000e+00
     15.810    13.0962 218.180705    286.331    8.20054   78.05949 8.3968e-01     1.9293    61.7346     0.4442     0.0254  0.000e+00
     15.849    13.0976 218.271180    286.439    8.16934   77.76496 8.1973e-01     1.9115    62.0094     0.3793     0.0257  0.000e+00
     15.878    13.1004 218.482290    286.696    8.13984   77.48895 8.0272e-01     1.8863    62.4025     0.3587     0.0282  0.000e+00
     15.903    13.1042 218.693400    286.944    8.11491   77.25834 8.0319e-01     1.9052    62.1081     0.3470     0.0282  0.000e+00
     15.927    13.1060 218.844195    287.128    8.10413   77.15878 7.9006e-01     1.8340    63.2234     0.3485     0.0284  0.000e+00
     15.948    13.1055 218.904515    287.211    8.08876   77.01149 7.8141e-01     1.8665    62.7118     0.3416     0.0317  0.000e+00
     15.973    13.1042 218.904516    287.221    8.10677   77.18084 7.6799e-01     1.8954    62.2594     0.3526     0.0307  0.000e+00
     16.010    13.1034 218.572767    286.792    8.13567   77.45447 7.6376e-01     1.8656    62.7249     0.3679     0.0312  0.000e+00
     16.055    13.1034 218.391815    286.554    8.15659   77.65364 7.3766e-01     1.9875    60.8431     0.3708     0.0315  0.000e+00
     16.108    13.1032 218.331499    286.476    8.17446   77.82342 7.3620e-01     1.9187    61.8991     0.3997     0.0296  0.000e+00
     16.158    13.1008 218.210868    286.336    8.21263   78.18260 7.1732e-01     1.8867    62.3959     0.3868     0.0279  0.000e+00
     16.205    13.0984 218.180712    286.315    8.23684   78.40877 6.9999e-01     1.8894    62.3532     0.4299     0.0256  0.000e+00
     16.249    13.0973 218.210872    286.363    8.26141   78.64081 6.8344e-01     1.8903    62.3400     0.4970     0.0259  0.000e+00
     16.297    13.0975 218.180714    286.322    8.27182   78.74021 6.6443e-01     1.9141    61.9699     0.4647     0.0267  0.000e+00
     16.335    13.0972 218.331508    286.521    8.26497   78.67456 6.4096e-01     1.9967    60.7032     0.4939     0.0267  0.000e+00
     16.359    13.0967 218.753733    287.080    8.24779   78.51025 6.4835e-01     1.9113    62.0127     0.6416     0.0253  0.000e+00
     16.360    13.0980 219.145805    287.584    8.20527   78.10799 6.5044e-01     1.9314    61.7017     0.5590     0.0246  0.000e+00
     16.362    13.1056 219.266440    287.685    8.16653   77.75228 6.5727e-01     1.9498    61.4188     0.6324     0.0249  0.000e+00
     16.363    13.1246 219.326746    287.621    8.09431   77.09740 6.4161e-01     1.9392    61.5817     0.8033     0.0298  0.000e+00
     16.363    13.1531 219.387046    287.485    8.02545   76.49009 6.4471e-01     1.9460    61.4780     0.7552     0.0295  0.000e+00
     16.363    13.1776 219.326708    287.221    7.97346   76.03602 6.4627e-01     1.9790    60.9730     0.6506     0.0274  0.000e+00
     16.363    13.1959 219.326695    287.084    7.95229   75.86490 6.5529e-01     1.9372    61.6129     0.5546     0.0263  0.000e+00
     16.364    13.2097 219.326685    286.980    7.95394   75.90403 6.5806e-01     1.9177    61.9140     0.9215     0.0266  0.000e+00
