* Sea-Bird SBE19plus Data File:
* FileName = C:\Users\Steve Constant\Desktop\CHRP2017\CTD\raw\chp32017021.hex
* Software Version 1.59
* Temperature SN =  6337
* Conductivity SN =  6337
* System UpLoad Time = May 26 2017 12:34:01
* ds
* SBE 19plus V 2.5.2  SERIAL NO. 6337    26 May 2017 08:26:09
* vbatt = 12.1, vlith =  8.2, ioper =  61.3 ma, ipump =  48.3 ma,
* iext01 =   5.8 ma, iext2345 =  86.7 ma
* status = not logging
* number of scans to average = 1
* samples = 300534, free = 2560254, casts = 22
* mode = profile, minimum cond freq = 3154, pump delay = 40 sec
* autorun = no, ignore magnetic switch = no
* battery type = alkaline, battery cutoff =  7.5 volts
* pressure sensor = strain gauge, range = 160.0
* SBE 38 = no, WETLABS = no, OPTODE = no, SBE63 = no, Gas Tension Device = no
* Ext Volt 0 = yes, Ext Volt 1 = yes
* Ext Volt 2 = yes, Ext Volt 3 = yes
* Ext Volt 4 = yes, Ext Volt 5 = yes
* echo characters = yes
* output format = raw HEX

* S>
*
* SBE 19plus V 2.5.2  SERIAL NO. 6337    26 May 2017 08:26:47
* temperature:  13-Jan-17
*     TA0 = 1.295807e-03
*     TA1 = 2.588888e-04
*     TA2 = 9.706836e-08
*     TA3 = 1.382757e-07
*     TOFFSET = 0.000000e+00
* conductivity:  13-Jan-17
*     G = -1.015047e+00
*     H = 1.449340e-01
*     I = -4.359138e-04
*     J = 5.256769e-05
*     CPCOR = -9.570000e-08
*     CTCOR = 3.250000e-06
*     CSLOPE = 1.000000e+00
* pressure S/N = 2882551, range = 160 psia:  11-Jan-17
*     PA0 = -1.431544e-01
*     PA1 = 4.887645e-04
*     PA2 = -6.439018e-12
*     PTCA0 = 5.240819e+05
*     PTCA1 = -1.723854e+01
*     PTCA2 = 1.164354e-01
*     PTCB0 = 2.491288e+01
*     PTCB1 = -1.025000e-03
*     PTCB2 = 0.000000e+00
*     PTEMPA0 = -6.474687e+01
*     PTEMPA1 = 5.145625e+01
*     PTEMPA2 = -2.579592e-01
*     POFFSET = 0.000000e+00
* volt 0: offset = -4.766105e-02, slope = 1.249330e+00
* volt 1: offset = -4.904947e-02, slope = 1.248985e+00
* volt 2: offset = -4.772842e-02, slope = 1.248965e+00
* volt 3: offset = -4.803053e-02, slope = 1.249328e+00
* volt 4: offset = -4.743158e-02, slope = 1.248557e+00
* volt 5: offset = -4.724737e-02, slope = 1.251092e+00
*     EXTFREQSF = 9.999918e-01
* dh
* cast  21 24 May 2017 04:24:18 samples 298080 to 299100, avg = 1, stop = mag switch

* S>
# nquan = 12
# nvalues = 595                                   
# units = specified
# name 0 = depFM: Depth [fresh water, m]
# name 1 = tv290C: Temperature [ITS-90, deg C]
# name 2 = c0uS/cm: Conductivity [uS/cm]
# name 3 = specc: Specific Conductance [uS/cm]
# name 4 = sbeox0Mg/L: Oxygen, SBE 43 [mg/l]
# name 5 = sbeox0PS: Oxygen, SBE 43 [% saturation]
# name 6 = par: PAR/Irradiance, Biospherical/Licor
# name 7 = CStarAt0: Beam Attenuation, WET Labs C-Star [1/m]
# name 8 = CStarTr0: Beam Transmission, WET Labs C-Star [%]
# name 9 = chloroflTC0: Chlorophyll, Turner Cyclops [ug/l]
# name 10 = phycyflTC0: Phycocyanin, Turner Cyclops [RFU]
# name 11 = flag:  0.000e+00
# span 0 =     -0.332,     15.094                 
# span 1 =    11.0335,    15.5502                 
# span 2 =   5.459983, 228.043537                 
# span 3 =      6.738,    294.571                 
# span 4 =    6.83928,   10.02831                 
# span 5 =   65.65841,   97.01413                 
# span 6 = 1.7806e+00, 5.6090e+02                 
# span 7 =     0.6876,    16.8973                 
# span 8 =     1.4635,    84.2070                 
# span 9 =     0.0357,     0.4543                 
# span 10 =     0.0000,     0.1505                
# span 11 = 0.0000e+00, 0.0000e+00                
# interval = seconds: 0.25
# start_time = May 24 2017 04:24:18 [Instrument's time stamp, header]
# bad_flag = -9.990e-29
# <Sensors count="9" >
#   <sensor Channel="1" >
#     <!-- Count, Temperature -->
#     <TemperatureSensor SensorID="58" >
#       <SerialNumber>6337</SerialNumber>
#       <CalibrationDate>13-Jan-17</CalibrationDate>
#       <A0>1.29580686e-003</A0>
#       <A1>2.58888790e-004</A1>
#       <A2>9.70683569e-008</A2>
#       <A3>1.38275720e-007</A3>
#       <Slope>1.00000000</Slope>
#       <Offset>0.0000</Offset>
#     </TemperatureSensor>
#   </sensor>
#   <sensor Channel="2" >
#     <!-- Frequency 0, Conductivity -->
#     <ConductivitySensor SensorID="3" >
#       <SerialNumber>6337</SerialNumber>
#       <CalibrationDate>13-Jan-17</CalibrationDate>
#       <UseG_J>1</UseG_J>
#       <!-- Cell const and series R are applicable only for wide range sensors. -->
#       <SeriesR>0.0000</SeriesR>
#       <CellConst>2000.0000</CellConst>
#       <ConductivityType>0</ConductivityType>
#       <Coefficients equation="0" >
#         <A>0.00000000e+000</A>
#         <B>0.00000000e+000</B>
#         <C>0.00000000e+000</C>
#         <D>0.00000000e+000</D>
#         <M>0.0</M>
#         <CPcor>-9.57000000e-008</CPcor>
#       </Coefficients>
#       <Coefficients equation="1" >
#         <G>-1.01504657e+000</G>
#         <H>1.44933984e-001</H>
#         <I>-4.35913838e-004</I>
#         <J>5.25676850e-005</J>
#         <CPcor>-9.57000000e-008</CPcor>
#         <CTcor>3.2500e-006</CTcor>
#         <!-- WBOTC not applicable unless ConductivityType = 1. -->
#         <WBOTC>0.00000000e+000</WBOTC>
#       </Coefficients>
#       <Slope>1.00000000</Slope>
#       <Offset>0.00000</Offset>
#     </ConductivitySensor>
#   </sensor>
#   <sensor Channel="3" >
#     <!-- Count, Pressure, Strain Gauge -->
#     <PressureSensor SensorID="46" >
#       <SerialNumber>6337</SerialNumber>
#       <CalibrationDate>11-Jan-17</CalibrationDate>
#       <PA0>-1.43154376e-001</PA0>
#       <PA1>4.88764480e-004</PA1>
#       <PA2>-6.43901847e-012</PA2>
#       <PTEMPA0>-6.47468750e+001</PTEMPA0>
#       <PTEMPA1>5.14562526e+001</PTEMPA1>
#       <PTEMPA2>-2.57959185e-001</PTEMPA2>
#       <PTCA0>5.24081949e+005</PTCA0>
#       <PTCA1>-1.72385379e+001</PTCA1>
#       <PTCA2>1.16435406e-001</PTCA2>
#       <PTCB0>2.49128750e+001</PTCB0>
#       <PTCB1>-1.02500000e-003</PTCB1>
#       <PTCB2>0.00000000e+000</PTCB2>
#       <Offset>0.000000</Offset>
#     </PressureSensor>
#   </sensor>
#   <sensor Channel="4" >
#     <!-- A/D voltage 0, Oxygen, SBE 43 -->
#     <OxygenSensor SensorID="38" >
#       <SerialNumber>2361</SerialNumber>
#       <CalibrationDate>20-Jan-17</CalibrationDate>
#       <Use2007Equation>1</Use2007Equation>
#       <CalibrationCoefficients equation="0" >
#         <!-- Coefficients for Owens-Millard equation. -->
#         <Boc>0.0000</Boc>
#         <Soc>0.0000e+000</Soc>
#         <offset>0.0000</offset>
#         <Pcor>0.00e+000</Pcor>
#         <Tcor>0.0000</Tcor>
#         <Tau>0.0</Tau>
#       </CalibrationCoefficients>
#       <CalibrationCoefficients equation="1" >
#         <!-- Coefficients for Sea-Bird equation - SBE calibration in 2007 and later. -->
#         <Soc>3.9698e-001</Soc>
#         <offset>-0.4986</offset>
#         <A>-3.9823e-003</A>
#         <B> 2.4447e-004</B>
#         <C>-3.3613e-006</C>
#         <D0> 2.5826e+000</D0>
#         <D1> 1.92634e-004</D1>
#         <D2>-4.64803e-002</D2>
#         <E> 3.6000e-002</E>
#         <Tau20> 1.0800</Tau20>
#         <H1>-3.3000e-002</H1>
#         <H2> 5.0000e+003</H2>
#         <H3> 1.4500e+003</H3>
#       </CalibrationCoefficients>
#     </OxygenSensor>
#   </sensor>
#   <sensor Channel="5" >
#     <!-- A/D voltage 1, Free -->
#   </sensor>
#   <sensor Channel="6" >
#     <!-- A/D voltage 2, PAR/Irradiance, Biospherical/Licor -->
#     <PAR_BiosphericalLicorChelseaSensor SensorID="42" >
#       <SerialNumber>70234</SerialNumber>
#       <CalibrationDate>11/29/16</CalibrationDate>
#       <M>1.00000000</M>
#       <B>0.00000000</B>
#       <CalibrationConstant>10917030568.00000000</CalibrationConstant>
#       <Multiplier>1.00000000</Multiplier>
#       <Offset>-0.09353959</Offset>
#     </PAR_BiosphericalLicorChelseaSensor>
#   </sensor>
#   <sensor Channel="7" >
#     <!-- A/D voltage 3, Transmissometer, WET Labs C-Star -->
#     <WET_LabsCStar SensorID="71" >
#       <SerialNumber>CST-484PR</SerialNumber>
#       <CalibrationDate>12/23/16</CalibrationDate>
#       <M>21.5610</M>
#       <B>-1.2721</B>
#       <PathLength>0.250</PathLength>
#     </WET_LabsCStar>
#   </sensor>
#   <sensor Channel="8" >
#     <!-- A/D voltage 4, Fluorometer, Turner Cyclops -->
#     <Fluorometer SensorID="68" >
#       <SerialNumber></SerialNumber>
#       <CalibrationDate></CalibrationDate>
#       <ScaleFactor>1.00000000e+000</ScaleFactor>
#       <Offset>0.00000000e+000</Offset>
#       <!-- 1 = C, Chlorophyll -->
#       <!-- 2 = R, Rhodamine -->
#       <!-- 3 = F, Fluorescein -->
#       <!-- 4 = P, Phycocyanin -->
#       <!-- 5 = E, Phycoerythrin -->
#       <!-- 6 = U, CDOM -->
#       <!-- 7 = O, CrudeOil -->
#       <!-- 8 = B, OpticalBrightness -->
#       <!-- 9 = T, Turbidity -->
#       <!-- 10 = G, Refined Fuels -->
#       <MeasuredParameter>4</MeasuredParameter>
#     </Fluorometer>
#   </sensor>
#   <sensor Channel="9" >
#     <!-- A/D voltage 5, Fluorometer, Turner Cyclops, 2 -->
#     <Fluorometer SensorID="68" >
#       <SerialNumber></SerialNumber>
#       <CalibrationDate></CalibrationDate>
#       <ScaleFactor>1.00000000e+000</ScaleFactor>
#       <Offset>0.00000000e+000</Offset>
#       <!-- 1 = C, Chlorophyll -->
#       <!-- 2 = R, Rhodamine -->
#       <!-- 3 = F, Fluorescein -->
#       <!-- 4 = P, Phycocyanin -->
#       <!-- 5 = E, Phycoerythrin -->
#       <!-- 6 = U, CDOM -->
#       <!-- 7 = O, CrudeOil -->
#       <!-- 8 = B, OpticalBrightness -->
#       <!-- 9 = T, Turbidity -->
#       <!-- 10 = G, Refined Fuels -->
#       <MeasuredParameter>1</MeasuredParameter>
#     </Fluorometer>
#   </sensor>
# </Sensors>
# datcnv_date = May 26 2017 13:03:39, 7.21d [datcnv_vars = 11]
# datcnv_in = C:\Users\Steve Constant\Desktop\CHRP2017\CTD\raw\CHRP8.hex C:\Users\Steve Constant\Desktop\CHRP2017\CTD\raw\SBE19plusV2_63372017.xmlcon
# datcnv_skipover = 0
# datcnv_ox_hysteresis_correction = yes
# datcnv_ox_tau_correction = yes
# file_type = ascii
*END*
     -0.330    15.5502  10.773477     13.283    9.41329   94.46455 5.0584e+02     4.1798    35.1712     0.0404     0.0188  0.000e+00
     -0.329    15.5487  10.295803     12.694    9.41440   94.47246 5.0798e+02     4.0921    35.9509     0.0407     0.0174  0.000e+00
     -0.329    15.5469   9.818140     12.106    9.41451   94.46980 5.1789e+02     4.1429    35.4969     0.0400     0.0190  0.000e+00
     -0.330    15.5451   9.549459     11.775    9.41932   94.51427 5.2421e+02     4.1854    35.1219     0.0381     0.0195  0.000e+00
     -0.330    15.5432   9.340488     11.518    9.42617   94.57932 5.2008e+02     4.1561    35.3801     0.0400     0.0189  0.000e+00
     -0.330    15.5370   9.131519     11.262    9.43144   94.61949 5.0664e+02     4.1029    35.8539     0.0421     0.0197  0.000e+00
     -0.330    15.5298   9.041961     11.154    9.43870   94.67765 4.9494e+02     4.0680    36.1681     0.0413     0.0201  0.000e+00
     -0.330    15.5269   8.773291     10.823    9.44435   94.72849 4.9668e+02     4.0580    36.2585     0.0408     0.0188  0.000e+00
     -0.330    15.5269   8.713587     10.749    9.44621   94.74713 4.9721e+02     4.0473    36.3556     0.0424     0.0192  0.000e+00
     -0.330    15.5277   8.474773     10.455    9.44914   94.77794 4.8777e+02     4.0256    36.5530     0.0429     0.0194  0.000e+00
     -0.330    15.5263   8.415070     10.381    9.44631   94.74669 4.7961e+02     3.9975    36.8113     0.0413     0.0186  0.000e+00
     -0.330    15.5193   8.086706      9.978    9.45082   94.77771 4.7651e+02     3.9739    37.0284     0.0407     0.0179  0.000e+00
     -0.330    15.5124   7.907600      9.759    9.44401   94.69540 4.5595e+02     3.9525    37.2275     0.0410     0.0175  0.000e+00
     -0.331    15.5111   7.758347      9.575    9.45168   94.76953 4.3789e+02     3.9277    37.4594     0.0400     0.0172  0.000e+00
     -0.330    15.5125   7.668795      9.464    9.45678   94.82367 4.3850e+02     3.9054    37.6683     0.0401     0.0169  0.000e+00
     -0.330    15.5103   7.668795      9.464    9.46718   94.92348 4.4675e+02     3.8814    37.8953     0.0412     0.0184  0.000e+00
     -0.330    15.5037   7.489694      9.245    9.46397   94.87763 4.5941e+02     3.8583    38.1141     0.0401     0.0188  0.000e+00
     -0.331    15.5028   7.459844      9.208    9.47130   94.94953 4.5563e+02     3.8358    38.3296     0.0401     0.0219  0.000e+00
     -0.331    15.5057   7.250894      8.950    9.47442   94.98659 4.6346e+02     3.8134    38.5451     0.0410     0.0227  0.000e+00
     -0.331    15.5096   7.221044      8.912    9.47154   94.96562 4.6411e+02     3.7885    38.7853     0.0395     0.0221  0.000e+00
     -0.331    15.5128   7.101645      8.764    9.46786   94.93519 4.7076e+02     3.7653    39.0106     0.0393     0.0202  0.000e+00
     -0.331    15.5153   6.982247      8.616    9.46968   94.95846 4.8376e+02     3.7455    39.2047     0.0369     0.0206  0.000e+00
     -0.331    15.5128   6.833000      8.432    9.46340   94.89041 5.1981e+02     3.7274    39.3824     0.0388     0.0185  0.000e+00
     -0.331    15.5047   6.713604      8.287    9.46901   94.93006 5.3210e+02     3.7104    39.5502     0.0404     0.0173  0.000e+00
     -0.331    15.4943   6.534511      8.068    9.46446   94.86326 5.3594e+02     3.6882    39.7706     0.0391     0.0166  0.000e+00
     -0.331    15.4912   6.534511      8.068    9.46543   94.86672 5.3840e+02     3.6662    39.9894     0.0426     0.0153  0.000e+00
     -0.331    15.4914   6.444965      7.958    9.47005   94.91345 5.3783e+02     3.6478    40.1736     0.0397     0.0143  0.000e+00
     -0.331    15.4915   6.415116      7.921    9.47434   94.95664 5.4086e+02     3.6266    40.3875     0.0417     0.0124  0.000e+00
     -0.331    15.4894   6.265874      7.737    9.47360   94.94494 5.4477e+02     3.6063    40.5931     0.0426     0.0115  0.000e+00
     -0.331    15.4868   6.236025      7.701    9.47439   94.94751 5.4862e+02     3.5808    40.8530     0.0416     0.0119  0.000e+00
     -0.331    15.4783   6.265874      7.739    9.47939   94.98034 5.4785e+02     3.5563    41.1031     0.0386     0.0124  0.000e+00
     -0.330    15.4657   6.146481      7.594    9.48252   94.98605 5.4698e+02     3.5297    41.3778     0.0388     0.0127  0.000e+00
     -0.331    15.4523   6.176330      7.633    9.48533   94.98683 5.4324e+02     3.5053    41.6311     0.0411     0.0157  0.000e+00
     -0.331    15.4400   6.086785      7.525    9.48960   95.00469 5.4267e+02     3.4757    41.9404     0.0425     0.0159  0.000e+00
     -0.331    15.4315   5.967393      7.379    9.49179   95.00931 5.4277e+02     3.4452    42.2611     0.0429     0.0188  0.000e+00
     -0.331    15.4288   6.027089      7.453    9.49193   95.00524 5.4602e+02     3.4182    42.5474     0.0417     0.0230  0.000e+00
     -0.331    15.4249   5.967393      7.380    9.49501   95.02795 5.5317e+02     3.3871    42.8797     0.0407     0.0159  0.000e+00
     -0.330    15.4173   5.877850      7.271    9.49359   94.99835 5.5550e+02     3.3625    43.1445     0.0396     0.0163  0.000e+00
     -0.331    15.4042   5.907698      7.310    9.49685   95.00437 5.5570e+02     3.3375    43.4143     0.0388     0.0166  0.000e+00
     -0.331    15.3889   5.848003      7.239    9.50043   95.00898 5.5123e+02     3.3133    43.6775     0.0376     0.0204  0.000e+00
     -0.331    15.3756   5.818155      7.204    9.50135   94.99113 5.4679e+02     3.2860    43.9769     0.0364     0.0204  0.000e+00
     -0.331    15.3648   5.788308      7.169    9.51176   95.07293 5.5035e+02     3.2568    44.2993     0.0357     0.0206  0.000e+00
     -0.331    15.3634   5.788308      7.170    9.51220   95.07449 5.5006e+02     3.2367    44.5230     0.0363     0.0081  0.000e+00
     -0.331    15.3674   5.758460      7.132    9.51349   95.09557 5.5677e+02     3.2093    44.8290     0.0390     0.0118  0.000e+00
     -0.331    15.3723   5.728612      7.094    9.51163   95.08717 5.5972e+02     3.1914    45.0297     0.0398     0.0108  0.000e+00
     -0.331    15.3814   5.668917      7.019    9.51191   95.10838 5.6090e+02     3.1704    45.2666     0.0406     0.0117  0.000e+00
     -0.331    15.3918   5.668917      7.017    9.50736   95.08402 5.5952e+02     3.1529    45.4656     0.0394     0.0088  0.000e+00
     -0.331    15.4021   5.579374      6.904    9.50113   95.04275 5.5161e+02     3.1352    45.6663     0.0396     0.0106  0.000e+00
     -0.331    15.4109   5.579374      6.903    9.50699   95.11925 5.4679e+02     3.1167    45.8785     0.0400     0.0148  0.000e+00
     -0.331    15.4200   5.579374      6.901    9.50065   95.07430 5.4239e+02     3.0998    46.0726     0.0394     0.0105  0.000e+00
     -0.332    15.4294   5.639069      6.973    9.49648   95.05182 5.4363e+02     3.0769    46.3375     0.0424     0.0152  0.000e+00
     -0.332    15.4376   5.609221      6.935    9.49063   95.00998 5.4612e+02     3.0626    46.5036     0.0414     0.0436  0.000e+00
     -0.331    15.4462   5.728611      7.081    9.48756   94.99683 5.4756e+02     3.0407    46.7586     0.0409     0.0386  0.000e+00
     -0.331    15.4556   5.609221      6.932    9.48535   94.99378 5.5482e+02     3.0199    47.0020     0.0427     0.0323  0.000e+00
     -0.331    15.4646   5.728610      7.078    9.47980   94.95658 5.5355e+02     2.9966    47.2768     0.0431     0.0244  0.000e+00
     -0.331    15.4717   5.668915      7.003    9.47933   94.96619 5.5560e+02     2.9733    47.5531     0.0420     0.0155  0.000e+00
     -0.331    15.4742   5.668915      7.002    9.47316   94.90958 5.5307e+02     2.9472    47.8640     0.0407     0.0110  0.000e+00
     -0.330    15.4731   5.668915      7.003    9.47373   94.91304 5.5307e+02     2.9212    48.1766     0.0423     0.0067  0.000e+00
     -0.330    15.4745   5.639068      6.966    9.46947   94.87318 5.5132e+02     2.8976    48.4612     0.0423     0.0117  0.000e+00
     -0.331    15.4706   5.668915      7.003    9.46962   94.86684 5.5006e+02     2.8733    48.7573     0.0422     0.0175  0.000e+00
     -0.331    15.4627   5.668915      7.004    9.46987   94.85305 5.4640e+02     2.8465    49.0846     0.0388     0.0168  0.000e+00
     -0.330    15.4610   5.728611      7.079    9.47100   94.86095 5.4660e+02     2.8143    49.4810     0.0372     0.0128  0.000e+00
     -0.331    15.4630   5.728610      7.078    9.47224   94.87741 5.4775e+02     2.7860    49.8331     0.0369     0.0144  0.000e+00
     -0.331    15.4612   5.668915      7.005    9.47388   94.89026 5.4229e+02     2.7562    50.2048     0.0402     0.0141  0.000e+00
     -0.331    15.4613   5.758458      7.115    9.47926   94.94434 5.4124e+02     2.7291    50.5470     0.0401     0.0186  0.000e+00
     -0.331    15.4655   5.728610      7.078    9.47882   94.94853 5.4086e+02     2.6988    50.9303     0.0390     0.0205  0.000e+00
     -0.330    15.4706   5.668915      7.003    9.47898   94.96043 5.3830e+02     2.6764    51.2165     0.0401     0.0208  0.000e+00
     -0.330    15.4749   5.728610      7.076    9.47417   94.92104 5.3566e+02     2.6521    51.5291     0.0426     0.0130  0.000e+00
     -0.330    15.4797   5.668915      7.002    9.47428   94.93199 5.3764e+02     2.6303    51.8104     0.0455     0.0166  0.000e+00
     -0.331    15.4852   5.668915      7.001    9.47090   94.90929 5.3679e+02     2.6132    52.0324     0.0434     0.0192  0.000e+00
     -0.331    15.4903   5.728610      7.073    9.47516   94.96226 5.3294e+02     2.5972    52.2414     0.0393     0.0050  0.000e+00
     -0.330    15.4928   5.728610      7.073    9.47327   94.94844 5.3416e+02     2.5864    52.3828     0.0401     0.0436  0.000e+00
     -0.331    15.4928   5.728610      7.073    9.47335   94.94923 5.3444e+02     2.5699    52.5983     0.0400     0.0288  0.000e+00
     -0.330    15.4940   5.728610      7.073    9.47334   94.95161 5.3878e+02     2.5570    52.7694     0.0391     0.0225  0.000e+00
     -0.330    15.4955   5.668915      6.999    9.47270   94.94821 5.4210e+02     2.5460    52.9142     0.0388     0.0130  0.000e+00
     -0.331    15.4976   5.728610      7.072    9.47089   94.93439 5.4067e+02     2.5361    53.0458     0.0392     0.0138  0.000e+00
     -0.330    15.4998   5.668915      6.998    9.47236   94.95346 5.4105e+02     2.5238    53.2086     0.0378     0.0148  0.000e+00
     -0.330    15.5012   5.668915      6.998    9.46713   94.90381 5.3698e+02     2.5134    53.3468     0.0407     0.0299  0.000e+00
     -0.330    15.4990   5.668915      6.998    9.46738   94.90200 5.2874e+02     2.5020    53.4998     0.0424     0.0740  0.000e+00
     -0.330    15.5015   5.668915      6.998    9.47354   94.96871 5.2109e+02     2.4952    53.5903     0.0426     0.0701  0.000e+00
     -0.330    15.5079   5.639067      6.960    9.46771   94.92339 5.0195e+02     2.4783    53.8173     0.0439     0.0555  0.000e+00
     -0.330    15.5059   5.728610      7.071    9.46536   94.89567 4.8572e+02     2.4644    54.0048     0.0430     0.0511  0.000e+00
     -0.331    15.5044   5.668915      6.997    9.46713   94.91041 4.8342e+02     2.4498    54.2022     0.0422     0.0481  0.000e+00
     -0.330    15.5046   5.728610      7.071    9.46099   94.84931 4.8130e+02     2.4332    54.4276     0.0429     0.1505  0.000e+00
     -0.328    15.5102   5.728610      7.070    9.44784   94.72881 4.8071e+02     2.4209    54.5954     0.0461     0.0000  0.000e+00
     -0.303    15.5098   5.459983      6.738    9.43088   94.55789 4.8402e+02     2.4534    54.1528     0.0729     0.0012  0.000e+00
     -0.270    15.2994   9.668880     11.995    9.44731   94.29746 4.8427e+02     2.8497    49.0451     0.0890     0.0272  0.000e+00
     -0.220    15.0116  87.825578    109.740    9.47318   93.99591 4.8147e+02     4.0183    36.6204     0.1074     0.0000  0.000e+00
     -0.180    14.8299 220.049038    276.211    9.47753   93.71508 4.8410e+02     5.8457    23.1907     0.1070     0.0000  0.000e+00
     -0.165    14.6959 227.349351    286.338    9.47654   93.43646 4.8427e+02     7.6503    14.7699     0.1041     0.0000  0.000e+00
     -0.133    14.5771 227.379611    287.236    9.47318   93.16286 4.8300e+02     9.3717     9.6046     0.1003     0.0000  0.000e+00
     -0.073    14.4849 225.448791    285.463    9.47363   92.98001 4.8529e+02    13.5434     3.3849     0.1012     0.0086  0.000e+00
     -0.012    14.3451 224.996368    285.902    9.48360   92.79481 4.8173e+02    16.8973     1.4635     0.1049     0.0145  0.000e+00
      0.042    14.3324 227.319452    288.947    9.47273   92.66351 4.7600e+02    16.0533     1.8073     0.1007     0.0192  0.000e+00
      0.093    14.4579 227.621078    288.410    9.42931   92.49151 4.7184e+02     5.9884    22.3780     0.1028     0.0215  0.000e+00
      0.137    14.5633 227.379627    287.337    9.39031   92.32022 4.7167e+02     5.4489    25.6088     0.1068     0.0220  0.000e+00
      0.170    14.5916 226.987380    286.636    9.36603   92.13790 4.6607e+02     3.0205    46.9955     0.1011     0.0216  0.000e+00
      0.192    14.5013 227.379674    287.788    9.35482   91.84735 4.6550e+02     2.2807    56.5430     0.1044     0.0211  0.000e+00
      0.204    14.3957 228.043537    289.401    9.34979   91.58756 4.6200e+02     1.9003    62.1837     0.1061     0.0189  0.000e+00
      0.223    14.3165 227.922906    289.831    9.34809   91.41289 4.5997e+02     2.3435    55.6613     0.1037     0.0186  0.000e+00
      0.273    14.3098 227.168617    288.922    9.34783   91.39664 4.5363e+02     2.0824    59.4168     0.1263     0.0185  0.000e+00
      0.343    14.3122 226.655712    288.251    9.35988   91.51914 2.2078e+02     1.6935    65.4836     0.1270     0.0188  0.000e+00
      0.409    14.2384 226.746279    288.909    9.40848   91.84641 1.9505e+02     1.4590    69.4365     0.1188     0.0182  0.000e+00
      0.470    14.1597 227.741994    290.761    9.47024   92.29066 1.5385e+02     1.3237    71.8267     0.1167     0.0190  0.000e+00
      0.517    14.1112 227.983410    291.430    9.54421   92.91293 1.4431e+02     1.3269    71.7691     0.1144     0.0200  0.000e+00
      0.550    14.1191 227.500651    290.754    9.62200   93.68622 1.4373e+02     1.3820    70.7871     0.1142     0.0188  0.000e+00
      0.578    14.1868 226.625639    289.136    9.69600   94.54635 1.5186e+02     1.3290    71.7313     0.1559     0.0174  0.000e+00
      0.600    14.1878 225.388685    287.550    9.77911   95.35844 1.4375e+02     1.2140    73.8237     0.1701     0.0166  0.000e+00
      0.614    14.0797 224.091551    286.686    9.87585   96.07370 1.4937e+02     1.2173    73.7629     0.1465     0.0177  0.000e+00
      0.614    13.9441 222.885011    286.136    9.96590   96.66142 1.4895e+02     1.2397    73.3500     0.1270     0.0175  0.000e+00
      0.622    13.8260 221.919837    285.763   10.02831   97.01413 1.3893e+02     1.2344    73.4470     0.1167     0.0186  0.000e+00
      0.642    13.7334 221.678596    286.135    9.99420   96.48727 1.2975e+02     1.2149    73.8073     0.1114     0.0194  0.000e+00
      0.670    13.6686 221.497664    286.381    9.94848   95.90864 1.3023e+02     1.2308    73.5145     0.1020     0.0185  0.000e+00
      0.693    13.6274 221.588183    286.803    9.92214   95.56777 1.3083e+02     1.1783    74.4850     0.1093     0.0187  0.000e+00
      0.694    13.6062 221.919997    287.391    9.85812   94.90668 1.3541e+02     1.1345    75.3042     0.1282     0.0188  0.000e+00
      0.666    13.6020 222.191474    287.773    9.76280   93.98055 1.5026e+02     1.1545    74.9292     0.1223     0.0196  0.000e+00
      0.619    13.6075 222.281962    287.849    9.62846   92.69869 1.5098e+02     1.2506    73.1509     0.1125     0.0204  0.000e+00
      0.566    13.6006 221.497711    286.885    9.46113   91.07353 1.6295e+02     1.2762    72.6838     0.1051     0.0203  0.000e+00
      0.547    13.5866 221.196092    286.599    9.27678   89.27104 1.7301e+02     1.2797    72.6196     0.1041     0.0197  0.000e+00
      0.595    13.6028 221.558036    286.947    9.07181   87.33018 1.5178e+02     1.1311    75.3684     0.1148     0.0199  0.000e+00
      0.670    13.6377 222.312105    287.664    8.86507   85.40598 1.2448e+02     1.0584    76.7518     0.1202     0.0201  0.000e+00
      0.712    13.6699 223.850518    289.413    8.67366   83.62171 1.3898e+02     1.0036    77.8096     0.1541     0.0200  0.000e+00
      0.713    13.7032 223.609163    288.853    8.55789   82.56614 1.4332e+02     0.9693    78.4807     0.1408     0.0203  0.000e+00
      0.682    13.7962 223.518597    288.043    8.50137   82.18917 1.2013e+02     0.9624    78.6156     0.1259     0.0202  0.000e+00
      0.612    13.8871 223.156540    286.904    8.50710   82.40899 1.2573e+02     1.0184    77.5217     0.1154     0.0196  0.000e+00
      0.535    13.9256 222.854858    286.233    8.56164   83.00732 1.7036e+02     1.0312    77.2750     0.1125     0.0171  0.000e+00
      0.521    13.9021 222.311911    285.708    8.65811   83.89911 1.7580e+02     0.9936    78.0053     0.1152     0.0159  0.000e+00
      0.574    13.8697 222.281772    285.908    8.73851   84.61798 1.5561e+02     0.9632    78.5992     0.1138     0.0169  0.000e+00
      0.644    13.8486 222.885081    286.839    8.81174   85.28782 1.3131e+02     0.9529    78.8032     0.1137     0.0188  0.000e+00
      0.701    13.8422 223.578896    287.779    8.87099   85.84943 1.2156e+02     0.9532    78.7966     0.1249     0.0185  0.000e+00
      0.730    13.8418 223.609063    287.822    8.92317   86.35348 1.2800e+02     0.9552    78.7571     0.1255     0.0199  0.000e+00
      0.724    13.8871 223.578863    287.447    8.96296   86.82515 1.3823e+02     0.9836    78.1994     0.1211     0.0193  0.000e+00
      0.686    13.9464 223.608986    287.048    8.98617   87.16345 1.3352e+02     1.0224    77.4444     0.1347     0.0198  0.000e+00
      0.639    13.9868 223.337462    286.402    9.00531   87.42659 1.3541e+02     1.0400    77.1055     0.1270     0.0201  0.000e+00
      0.605    14.0036 223.186621    286.085    9.01484   87.55123 1.4640e+02     1.0500    76.9131     0.1165     0.0193  0.000e+00
      0.593    13.9743 222.734164    285.720    9.02098   87.55444 1.7611e+02     1.0524    76.8670     0.1083     0.0185  0.000e+00
      0.592    13.9201 222.613544    285.963    8.99073   87.15702 1.6124e+02     1.0008    77.8639     0.1940     0.0190  0.000e+00
      0.602    13.8782 222.734234    286.427    8.93964   86.58201 1.2272e+02     1.0222    77.4493     0.2206     0.0183  0.000e+00
      0.615    13.8544 222.764416    286.641    8.86606   85.82445 1.2304e+02     1.0000    77.8803     0.1836     0.0189  0.000e+00
      0.635    13.8358 222.673936    286.662    8.78159   84.97195 1.3682e+02     0.9694    78.4774     0.1525     0.0189  0.000e+00
      0.658    13.8160 222.553292    286.653    8.69323   84.08018 1.4548e+02     0.9909    78.0580     0.1354     0.0187  0.000e+00
      0.666    13.8036 222.975610    287.289    8.59629   83.12011 1.3981e+02     0.9798    78.2735     0.1232     0.0196  0.000e+00
      0.667    13.8005 223.035943    287.389    8.50622   82.24356 1.3282e+02     0.9802    78.2669     0.1151     0.0185  0.000e+00
      0.656    13.7977 222.824788    287.138    8.43468   81.54686 1.3570e+02     0.9936    78.0053     0.1091     0.0192  0.000e+00
      0.643    13.7868 222.402490    286.674    8.36394   80.84334 1.4866e+02     0.9682    78.5021     0.1191     0.0195  0.000e+00
      0.636    13.7720 222.312008    286.667    8.29923   80.19172 1.5282e+02     0.9590    78.6831     0.1229     0.0183  0.000e+00
      0.629    13.7565 222.221526    286.665    8.23746   79.56774 1.5116e+02     0.9425    79.0071     0.1302     0.0188  0.000e+00
      0.626    13.7507 222.191366    286.669    8.19380   79.13582 1.4167e+02     0.9242    79.3707     0.1263     0.0237  0.000e+00
      0.627    13.7522 222.342186    286.853    8.15406   78.75463 1.2893e+02     0.9434    78.9890     0.1343     0.0247  0.000e+00
      0.633    13.7542 222.312020    286.798    8.12203   78.44882 1.3186e+02     0.9781    78.3080     0.1292     0.0227  0.000e+00
      0.644    13.7545 222.221528    286.680    8.07083   77.95464 1.4140e+02     0.9611    78.6419     0.1187     0.0223  0.000e+00
      0.665    13.7536 222.161201    286.609    8.02560   77.51619 1.4107e+02     0.9332    79.1914     0.1118     0.0218  0.000e+00
      0.673    13.7517 222.553339    287.129    8.00648   77.32851 1.5347e+02     0.9262    79.3296     0.1061     0.0214  0.000e+00
      0.660    13.7542 223.367797    288.161    8.01350   77.40080 1.5226e+02     0.9348    79.1601     0.1053     0.0211  0.000e+00
      0.636    13.7563 223.458293    288.262    8.05404   77.79606 1.4292e+02     0.9559    78.7439     0.1080     0.0197  0.000e+00
      0.607    13.7582 223.035972    287.703    8.10073   78.25013 1.4835e+02     0.9270    79.3147     0.1041     0.0192  0.000e+00
      0.596    13.7754 222.281840    286.603    8.15047   78.76026 1.5520e+02     0.9175    79.5023     0.0995     0.0188  0.000e+00
      0.614    13.7796 221.950034    286.144    8.20256   79.27087 1.6053e+02     0.9237    79.3805     0.0982     0.0187  0.000e+00
      0.640    13.7708 221.919877    286.170    8.27827   79.98701 1.5008e+02     0.9311    79.2341     0.1043     0.0181  0.000e+00
      0.654    13.7663 222.764481    287.293    8.34138   80.58910 1.5236e+02     0.9389    79.0795     0.1195     0.0183  0.000e+00
      0.661    13.7671 223.337622    288.026    8.39178   81.07756 1.4365e+02     0.9419    79.0186     0.1361     0.0191  0.000e+00
      0.656    13.7641 223.609118    288.398    8.41759   81.32163 1.2977e+02     0.9281    79.2934     0.3294     0.0191  0.000e+00
      0.647    13.7758 223.216953    287.806    8.41398   81.30750 1.4728e+02     0.9389    79.0779     0.4543     0.0168  0.000e+00
      0.643    13.7903 222.764463    287.115    8.39041   81.10570 1.5829e+02     0.9463    78.9331     0.4349     0.0159  0.000e+00
      0.648    13.7964 222.402483    286.603    8.35953   80.81779 1.6045e+02     0.9333    79.1897     0.3346     0.0166  0.000e+00
      0.654    13.7923 222.342158    286.556    8.33218   80.54614 1.5024e+02     0.9318    79.2193     0.2466     0.0159  0.000e+00
      0.656    13.7789 222.372332    286.694    8.33222   80.52276 1.3343e+02     0.9366    79.1239     0.1863     0.0163  0.000e+00
      0.651    13.7670 222.673986    287.171    8.34239   80.60008 1.4325e+02     0.9291    79.2720     0.1769     0.0175  0.000e+00
      0.637    13.7661 222.975636    287.566    8.35130   80.68461 1.5132e+02     0.9287    79.2802     0.1617     0.0180  0.000e+00
      0.616    13.7655 222.734316    287.260    8.35622   80.73094 1.6601e+02     0.9199    79.4546     0.1418     0.0188  0.000e+00
      0.599    13.7544 222.372348    286.875    8.34686   80.62075 1.5322e+02     0.9241    79.3723     0.1345     0.0192  0.000e+00
      0.603    13.7281 221.919907    286.486    8.31884   80.30344 1.4574e+02     0.9287    79.2802     0.1196     0.0184  0.000e+00
      0.630    13.6976 221.678621    286.400    8.28362   79.90953 1.4966e+02     0.9348    79.1601     0.1102     0.0183  0.000e+00
      0.666    13.6731 221.859621    286.815    8.24236   79.46874 1.5679e+02     0.9221    79.4118     0.1063     0.0189  0.000e+00
      0.692    13.6650 222.975711    288.318    8.21744   79.21462 1.4413e+02     0.9202    79.4496     0.1012     0.0190  0.000e+00
      0.698    13.6582 223.518697    289.072    8.19795   79.01501 1.4302e+02     0.9205    79.4431     0.1028     0.0192  0.000e+00
      0.683    13.6892 223.458342    288.762    8.17609   78.85815 1.4879e+02     0.9525    78.8097     0.1003     0.0197  0.000e+00
      0.650    13.7839 223.216947    287.746    8.14919   78.76281 1.6183e+02     0.9714    78.4396     0.1008     0.0212  0.000e+00
      0.613    13.8509 222.734254    286.628    8.13142   78.70699 1.6748e+02     0.9735    78.3968     0.1087     0.0214  0.000e+00
      0.592    13.8782 222.523081    286.155    8.13026   78.74294 1.6135e+02     0.9739    78.3903     0.1211     0.0208  0.000e+00
      0.597    13.8637 222.251612    285.913    8.15130   78.92140 1.5955e+02     0.9686    78.4939     0.1185     0.0201  0.000e+00
      0.622    13.8187 222.161153    286.127    8.16355   78.96191 1.6967e+02     0.9434    78.9907     0.1119     0.0201  0.000e+00
      0.649    13.7813 222.764470    287.181    8.17369   78.99507 1.6255e+02     0.9283    79.2884     0.1040     0.0202  0.000e+00
      0.667    13.7651 223.277292    287.963    8.18221   79.04940 1.5228e+02     0.9273    79.3082     0.1132     0.0201  0.000e+00
      0.672    13.7503 223.458298    288.307    8.19048   79.10348 1.4479e+02     0.9579    78.7045     0.1132     0.0194  0.000e+00
      0.663    13.7750 223.458280    288.123    8.20270   79.26463 1.4162e+02     0.9652    78.5613     0.1152     0.0190  0.000e+00
      0.651    13.8299 223.156583    287.327    8.20723   79.40411 1.5751e+02     0.9574    78.7143     0.1185     0.0191  0.000e+00
      0.644    13.8621 222.915237    286.778    8.20483   79.43725 1.5512e+02     0.9735    78.3985     0.1186     0.0204  0.000e+00
      0.644    13.8672 222.613584    286.352    8.20635   79.46074 1.3864e+02     1.0190    77.5118     0.1295     0.0201  0.000e+00
      0.657    13.8573 222.613591    286.425    8.20925   79.47155 1.5732e+02     1.0006    77.8688     0.1604     0.0203  0.000e+00
      0.665    13.8370 223.035916    287.119    8.20154   79.36139 1.6263e+02     0.9771    78.3277     0.1514     0.0203  0.000e+00
      0.664    13.8254 223.367746    287.632    8.18710   79.20152 1.6695e+02     0.9557    78.7472     0.1302     0.0191  0.000e+00
      0.650    13.8160 223.518582    287.896    8.15919   78.91527 1.6441e+02     0.9312    79.2309     0.1203     0.0184  0.000e+00
      0.629    13.8422 223.397898    287.546    8.11899   78.57185 1.4871e+02     0.9603    78.6567     0.1275     0.0195  0.000e+00
      0.613    13.8892 223.096208    286.811    8.07646   78.24103 1.3399e+02     0.9693    78.4807     0.1191     0.0203  0.000e+00
      0.616    13.9142 222.764373    286.201    8.04293   77.95879 1.5729e+02     0.9371    79.1141     0.1157     0.0211  0.000e+00
      0.635    13.9142 222.854868    286.317    8.01936   77.73036 1.4553e+02     0.9454    78.9512     0.1062     0.0198  0.000e+00
      0.646    13.8995 223.307360    287.006    8.01967   77.70849 1.6836e+02     0.9382    79.0927     0.1010     0.0201  0.000e+00
      0.653    13.8775 223.518537    287.440    8.03996   77.86750 1.6467e+02     0.9499    78.8607     0.1004     0.0196  0.000e+00
      0.647    13.8657 223.458213    287.450    8.06820   78.12069 1.3494e+02     0.9520    78.8196     0.0967     0.0207  0.000e+00
      0.644    13.8869 223.156541    286.906    8.10872   78.54948 1.4687e+02     0.9863    78.1468     0.0930     0.0214  0.000e+00
      0.658    13.9090 222.975533    286.510    8.14947   78.98264 1.6552e+02     0.9694    78.4774     0.0903     0.0201  0.000e+00
      0.662    13.9062 223.156527    286.763    8.18275   79.30035 1.7042e+02     0.9675    78.5153     0.0941     0.0202  0.000e+00
      0.654    13.8995 223.458189    287.200    8.21394   79.59098 1.6994e+02     0.9835    78.2027     0.1263     0.0204  0.000e+00
      0.641    13.8868 223.578862    287.449    8.24067   79.82770 1.5679e+02     1.0017    77.8474     0.1316     0.0183  0.000e+00
      0.625    13.8898 223.397864    287.195    8.24241   79.84970 1.4850e+02     1.0131    77.6253     0.1187     0.0174  0.000e+00
      0.629    13.9152 223.035859    286.542    8.22936   79.76765 1.6110e+02     1.0347    77.2075     0.1083     0.0168  0.000e+00
      0.660    13.9249 222.824696    286.199    8.19778   79.47847 1.5167e+02     1.0183    77.5250     0.1009     0.0165  0.000e+00
      0.684    13.8894 223.096209    286.810    8.17769   79.22194 1.6223e+02     0.9889    78.0958     0.0974     0.0163  0.000e+00
      0.683    13.8516 223.518556    287.632    8.17811   79.16031 1.5360e+02     0.9987    77.9050     0.0955     0.0173  0.000e+00
      0.658    13.8252 223.639239    287.983    8.19386   79.26682 1.5100e+02     1.0145    77.5990     0.0954     0.0175  0.000e+00
      0.613    13.8688 223.548708    287.543    8.20344   79.43563 1.5779e+02     1.0372    77.1598     0.0953     0.0197  0.000e+00
      0.566    13.9339 223.156505    286.560    8.21018   79.61439 1.7307e+02     1.0168    77.5530     0.0936     0.0191  0.000e+00
      0.557    13.9634 222.854831    285.955    8.23423   79.89947 1.8513e+02     1.0337    77.2272     0.0959     0.0184  0.000e+00
      0.597    13.9417 222.402377    285.533    8.27142   80.22192 1.6298e+02     1.0129    77.6303     0.0951     0.0174  0.000e+00
      0.658    13.8738 221.919803    285.412    8.31910   80.56387 1.6081e+02     0.9946    77.9856     0.0948     0.0185  0.000e+00
      0.699    13.8162 222.402470    286.457    8.35694   80.82794 1.5293e+02     0.9773    78.3228     0.1020     0.0190  0.000e+00
      0.714    13.7867 223.277277    287.802    8.37339   80.93486 1.4224e+02     0.9655    78.5548     0.0991     0.0200  0.000e+00
      0.695    13.7666 223.458286    288.185    8.38335   80.99530 1.4115e+02     0.9651    78.5630     0.0993     0.0205  0.000e+00
      0.646    13.8128 223.458252    287.842    8.36742   80.92356 1.5352e+02     0.9951    77.9757     0.1015     0.0207  0.000e+00
      0.590    13.8831 222.885055    286.585    8.34943   80.87441 1.6249e+02     1.0149    77.5908     0.1023     0.0209  0.000e+00
      0.559    13.9262 222.523045    285.802    8.33404   80.80166 1.5156e+02     1.0155    77.5793     0.0994     0.0211  0.000e+00
      0.574    13.9326 222.402383    285.600    8.33311   80.80403 1.7804e+02     1.0228    77.4378     0.1167     0.0202  0.000e+00
      0.622    13.8878 222.100775    285.541    8.37252   81.10632 1.5055e+02     0.9994    77.8918     0.1194     0.0200  0.000e+00
      0.668    13.8316 222.311965    286.227    8.42013   81.46682 1.4599e+02     0.9770    78.3294     0.1110     0.0209  0.000e+00
      0.688    13.8002 222.915282    287.236    8.47114   81.90385 1.4710e+02     0.9682    78.5021     0.1048     0.0211  0.000e+00
      0.684    13.7781 223.307449    287.905    8.50767   82.21715 1.4170e+02     0.9746    78.3755     0.1030     0.0208  0.000e+00
      0.651    13.7896 223.337605    287.859    8.52887   82.44287 1.3310e+02     0.9886    78.1024     0.1149     0.0198  0.000e+00
      0.599    13.8441 223.035910    287.066    8.54039   82.65335 1.4479e+02     0.9650    78.5646     0.1119     0.0201  0.000e+00
      0.561    13.8905 222.553236    286.104    8.54732   82.80460 1.5977e+02     0.9662    78.5416     0.1115     0.0191  0.000e+00
      0.571    13.9108 222.372235    285.722    8.55762   82.94124 1.6441e+02     0.9856    78.1616     0.1103     0.0177  0.000e+00
      0.628    13.8854 221.919794    285.327    8.56890   83.00413 1.6172e+02     0.9764    78.3409     0.1110     0.0179  0.000e+00
      0.691    13.8295 221.769018    285.544    8.60131   83.21562 1.3719e+02     0.9889    78.0958     0.1031     0.0188  0.000e+00
      0.726    13.7857 222.613644    286.955    8.62743   83.38826 1.5646e+02     0.9735    78.3985     0.0979     0.0195  0.000e+00
      0.737    13.7617 222.975642    287.599    8.63926   83.45851 1.5360e+02     0.9932    78.0136     0.0961     0.0198  0.000e+00
      0.739    13.7522 223.156641    287.903    8.64781   83.52385 1.3050e+02     0.9814    78.2422     0.0946     0.0199  0.000e+00
      0.724    13.7819 222.975627    287.449    8.65083   83.60762 1.3501e+02     0.9674    78.5169     0.1084     0.0218  0.000e+00
      0.702    13.8188 222.523126    286.593    8.64409   83.61013 1.5414e+02     0.9612    78.6387     0.1548     0.0210  0.000e+00
      0.713    13.8224 222.100824    286.023    8.63246   83.50401 1.5431e+02     0.9520    78.8212     0.1420     0.0197  0.000e+00
      0.791    13.8085 221.588055    285.464    8.61284   83.28876 1.5236e+02     0.9526    78.8081     0.1242     0.0187  0.000e+00
      0.891    13.7749 221.286451    285.324    8.58146   82.92370 1.3842e+02     0.9602    78.6584     0.1110     0.0185  0.000e+00
      0.978    13.7355 221.407133    285.769    8.54466   82.49665 1.3999e+02     0.9657    78.5498     0.1038     0.0177  0.000e+00
      1.044    13.7113 222.100911    286.844    8.51115   82.12941 1.3818e+02     0.9716    78.4347     0.0994     0.0181  0.000e+00
      1.096    13.6958 222.523223    287.505    8.47812   81.78285 1.2671e+02     0.9633    78.5975     0.0965     0.0188  0.000e+00
      1.127    13.6817 222.734387    287.882    8.46860   81.66573 1.2113e+02     0.9509    78.8410     0.0992     0.0194  0.000e+00
      1.140    13.6910 222.824876    287.930    8.45575   81.55863 1.2577e+02     0.9734    78.4001     0.1093     0.0184  0.000e+00
      1.155    13.7280 222.342215    287.032    8.43504   81.42495 1.3484e+02     0.9516    78.8278     0.1196     0.0185  0.000e+00
      1.184    13.7587 222.100880    286.493    8.42795   81.41155 1.3023e+02     0.9584    78.6946     0.1154     0.0201  0.000e+00
      1.227    13.7664 221.859565    286.125    8.41846   81.33357 1.2060e+02     0.9547    78.7670     0.1066     0.0204  0.000e+00
      1.283    13.7574 221.829409    286.152    8.42774   81.40723 1.2024e+02     0.9708    78.4511     0.1032     0.0188  0.000e+00
      1.351    13.7367 221.738935    286.189    8.43677   81.45719 1.1956e+02     0.9626    78.6123     0.1115     0.0188  0.000e+00
      1.416    13.7080 221.829448    286.518    8.45199   81.55256 1.1758e+02     0.9534    78.7933     0.1446     0.0199  0.000e+00
      1.467    13.6880 222.221593    287.173    8.45125   81.50960 1.1156e+02     0.9471    78.9167     0.1608     0.0204  0.000e+00
      1.510    13.6794 222.462915    287.549    8.44070   81.39233 1.0676e+02     0.9598    78.6666     0.1565     0.0204  0.000e+00
      1.544    13.6686 222.462923    287.629    8.41940   81.16782 1.0898e+02     0.9518    78.8245     0.1386     0.0259  0.000e+00
      1.573    13.6587 222.402602    287.624    8.39072   80.87362 1.1188e+02     0.9472    78.9150     0.1280     0.0259  0.000e+00
      1.596    13.6589 222.342274    287.545    8.35214   80.50195 1.0849e+02     0.9547    78.7670     0.1183     0.0237  0.000e+00
      1.625    13.6628 222.100958    287.204    8.30212   80.02667 1.0246e+02     0.9469    78.9199     0.1229     0.0223  0.000e+00
      1.671    13.6580 221.859652    286.928    8.24388   79.45686 1.0151e+02     0.9560    78.7423     0.1265     0.0215  0.000e+00
      1.727    13.6417 221.678685    286.815    8.18575   78.86812 1.0226e+02     0.9555    78.7522     0.1208     0.0214  0.000e+00
      1.790    13.6247 221.618371    286.862    8.13197   78.32062 9.9864e+01     0.9532    78.7966     0.1174     0.0213  0.000e+00
      1.851    13.6122 221.739035    287.111    8.08379   77.83514 9.6497e+01     0.9565    78.7324     0.1277     0.0216  0.000e+00
      1.898    13.6040 222.191499    287.759    8.04192   77.41792 9.5300e+01     0.9504    78.8509     0.1234     0.0220  0.000e+00
      1.930    13.6060 222.462977    288.095    8.00722   77.08749 9.5149e+01     0.9555    78.7505     0.1242     0.0214  0.000e+00
      1.952    13.6050 222.523307    288.181    7.97259   76.75235 9.5283e+01     0.9536    78.7883     0.1159     0.0208  0.000e+00
      1.972    13.6198 222.221653    287.680    7.93625   76.42735 9.3212e+01     0.9509    78.8426     0.1097     0.0212  0.000e+00
      2.002    13.6354 221.769185    286.978    7.90238   76.12746 8.9848e+01     0.9439    78.9792     0.1083     0.0202  0.000e+00
      2.052    13.6407 221.437387    286.510    7.87055   75.82955 8.9975e+01     0.9285    79.2851     0.1050     0.0184  0.000e+00
      2.113    13.6228 221.256423    286.408    7.83486   75.45574 8.9375e+01     0.9201    79.4513     0.1023     0.0185  0.000e+00
      2.169    13.5960 221.316769    286.685    7.80481   75.12195 8.8204e+01     0.9163    79.5270     0.0977     0.0190  0.000e+00
      2.217    13.5805 221.889883    287.543    7.77381   74.79805 8.9344e+01     0.9212    79.4299     0.0936     0.0185  0.000e+00
      2.253    13.5721 222.161365    287.958    7.74083   74.46693 8.9832e+01     0.9172    79.5089     0.0922     0.0175  0.000e+00
      2.283    13.5591 222.161375    288.055    7.70883   74.13783 8.7140e+01     0.9099    79.6536     0.0942     0.0185  0.000e+00
      2.315    13.5468 221.799419    287.677    7.68224   73.86194 8.2939e+01     0.9070    79.7128     0.1120     0.0200  0.000e+00
      2.356    13.5379 221.407304    287.235    7.65072   73.54426 8.0779e+01     0.9222    79.4102     0.1525     0.0214  0.000e+00
      2.411    13.5279 221.166010    286.996    7.61368   73.17201 8.0595e+01     0.9204    79.4463     0.1378     0.0215  0.000e+00
      2.470    13.5117 221.105697    287.039    7.58280   72.84904 8.1149e+01     0.9076    79.6997     0.1267     0.0208  0.000e+00
      2.523    13.4989 221.286684    287.369    7.57425   72.74639 8.1207e+01     0.9157    79.5385     0.1397     0.0211  0.000e+00
      2.567    13.4964 221.769297    288.015    7.58355   72.83179 8.1078e+01     0.9087    79.6783     0.1312     0.0211  0.000e+00
      2.602    13.4980 222.101098    288.433    7.60733   73.06295 7.9399e+01     0.9024    79.8033     0.1212     0.0207  0.000e+00
      2.626    13.4936 222.312250    288.741    7.64011   73.37055 7.7359e+01     0.9049    79.7540     0.1308     0.0202  0.000e+00
      2.645    13.4995 222.221754    288.579    7.66935   73.66109 7.5504e+01     0.9048    79.7556     0.1285     0.0193  0.000e+00
      2.671    13.5267 221.829604    287.867    7.68985   73.90223 7.4921e+01     0.9018    79.8165     0.1168     0.0200  0.000e+00
      2.713    13.5378 221.437474    287.275    7.69628   73.98210 7.5014e+01     0.9164    79.5253     0.1099     0.0189  0.000e+00
      2.766    13.5360 221.286662    287.093    7.68908   73.90985 7.4239e+01     0.9067    79.7178     0.1084     0.0191  0.000e+00
      2.828    13.5293 221.166017    286.986    7.65883   73.60830 7.2548e+01     0.9096    79.6602     0.1083     0.0197  0.000e+00
      2.893    13.5178 221.105702    286.994    7.62871   73.30001 7.1497e+01     0.9037    79.7770     0.1152     0.0187  0.000e+00
      2.951    13.5062 221.377176    287.432    7.59521   72.95956 6.9329e+01     0.9303    79.2489     0.1117     0.0204  0.000e+00
      2.997    13.5058 221.920117    288.140    7.56778   72.69553 6.8300e+01     0.9220    79.4134     0.1136     0.0202  0.000e+00
      3.032    13.5114 221.980441    288.177    7.54287   72.46524 6.7857e+01     0.9122    79.6092     0.1273     0.0214  0.000e+00
      3.058    13.5133 222.101096    288.319    7.52022   72.25074 6.6956e+01     0.9074    79.7046     0.1217     0.0227  0.000e+00
      3.084    13.5310 221.950265    287.991    7.49303   72.01764 6.5477e+01     0.9084    79.6832     0.1168     0.0224  0.000e+00
      3.115    13.5490 221.739107    287.583    7.47538   71.87647 6.3906e+01     0.9089    79.6750     0.1145     0.0223  0.000e+00
      3.158    13.5538 221.407309    287.116    7.45222   71.66134 6.3726e+01     0.9252    79.3493     0.1208     0.0219  0.000e+00
      3.214    13.5541 221.226333    286.880    7.43036   71.45159 6.3235e+01     0.9056    79.7408     0.1151     0.0211  0.000e+00
      3.273    13.5417 221.166018    286.894    7.41862   71.31910 6.1859e+01     0.8982    79.8872     0.1292     0.0205  0.000e+00
      3.327    13.5282 221.286679    287.150    7.38769   71.00068 6.0047e+01     0.9146    79.5615     0.1289     0.0187  0.000e+00
      3.379    13.5228 221.618478    287.622    7.38512   70.96753 5.8226e+01     0.9161    79.5302     0.1234     0.0186  0.000e+00
      3.415    13.5234 221.980441    288.087    7.37619   70.88270 5.7473e+01     0.9065    79.7211     0.1154     0.0177  0.000e+00
      3.438    13.5168 222.161430    288.371    7.36745   70.78853 5.7412e+01     0.9097    79.6586     0.1221     0.0175  0.000e+00
      3.463    13.5171 221.980446    288.134    7.35643   70.68298 5.7666e+01     0.9083    79.6865     0.1164     0.0185  0.000e+00
      3.501    13.5382 221.618469    287.506    7.34286   70.58554 5.7402e+01     0.9097    79.6586     0.1505     0.0182  0.000e+00
      3.553    13.5477 221.226345    286.927    7.32184   70.39801 5.6144e+01     0.8982    79.8872     0.1495     0.0185  0.000e+00
      3.616    13.5441 221.045373    286.719    7.31831   70.35847 5.4088e+01     0.9044    79.7638     0.1328     0.0188  0.000e+00
      3.675    13.5320 221.105708    286.888    7.30877   70.24794 5.2392e+01     0.9062    79.7276     0.1171     0.0188  0.000e+00
      3.723    13.5223 221.407343    287.351    7.29684   70.11838 5.1216e+01     0.9008    79.8362     0.1057     0.0195  0.000e+00
      3.761    13.5201 221.799468    287.877    7.28968   70.04626 5.0991e+01     0.9037    79.7770     0.1011     0.0202  0.000e+00
      3.787    13.5146 221.920127    288.074    7.27779   69.92357 5.1081e+01     0.8959    79.9333     0.0979     0.0207  0.000e+00
      3.808    13.5071 221.950297    288.170    7.27838   69.91763 5.1216e+01     0.8879    80.0928     0.0977     0.0204  0.000e+00
      3.838    13.5168 221.678818    287.745    7.28461   69.99246 5.0776e+01     0.9007    79.8379     0.1000     0.0188  0.000e+00
      3.883    13.5283 221.256528    287.111    7.30213   70.17848 4.9733e+01     0.8853    80.1455     0.1020     0.0182  0.000e+00
      3.936    13.5277 221.105716    286.920    7.33080   70.45304 4.8165e+01     0.8920    80.0106     0.1067     0.0184  0.000e+00
      3.992    13.5216 220.985072    286.809    7.35958   70.71994 4.6745e+01     0.9209    79.4348     0.1094     0.0192  0.000e+00
      4.046    13.5084 220.985083    286.907    7.38749   70.96756 4.5735e+01     0.8936    79.9793     0.1085     0.0195  0.000e+00
      4.096    13.4962 221.045417    287.076    7.39998   71.06825 4.5215e+01     0.8943    79.9645     0.1060     0.0184  0.000e+00
      4.143    13.4910 221.166072    287.272    7.39631   71.02497 4.4937e+01     0.8888    80.0764     0.1215     0.0182  0.000e+00
      4.184    13.4913 221.407375    287.583    7.37526   70.82328 4.4457e+01     0.8983    79.8856     0.1209     0.0182  0.000e+00
      4.224    13.4971 221.437535    287.579    7.34493   70.54109 4.3566e+01     0.8971    79.9102     0.1158     0.0175  0.000e+00
      4.264    13.5004 221.678839    287.867    7.30176   70.13174 4.2581e+01     0.8986    79.8790     0.1087     0.0179  0.000e+00
      4.300    13.5000 221.859821    288.105    7.26084   69.73819 4.1919e+01     0.9021    79.8099     0.1073     0.0182  0.000e+00
      4.332    13.4960 221.950316    288.253    7.22947   69.43072 4.1383e+01     0.8962    79.9267     0.1091     0.0191  0.000e+00
      4.364    13.4909 221.980484    288.330    7.20092   69.14869 4.1332e+01     0.8986    79.8790     0.1175     0.0195  0.000e+00
      4.398    13.4893 221.829667    288.146    7.18077   68.95270 4.1086e+01     0.8873    80.1060     0.1114     0.0198  0.000e+00
      4.440    13.4929 221.739175    288.002    7.16843   68.83981 4.0661e+01     0.8878    80.0961     0.1037     0.0199  0.000e+00
      4.486    13.4962 221.618520    287.821    7.16393   68.80140 4.0085e+01     0.8962    79.9267     0.1061     0.0187  0.000e+00
      4.538    13.4964 221.497868    287.662    7.15985   68.76261 3.9047e+01     0.8905    80.0418     0.1132     0.0185  0.000e+00
      4.601    13.4937 221.196242    287.291    7.14553   68.62081 3.7802e+01     0.8916    80.0188     0.1080     0.0192  0.000e+00
      4.659    13.4885 221.166085    287.291    7.13577   68.51916 3.6849e+01     0.8888    80.0747     0.1030     0.0197  0.000e+00
      4.709    13.4815 221.196253    287.382    7.11802   68.33828 3.6244e+01     0.8703    80.4465     0.1018     0.0190  0.000e+00
      4.753    13.4766 221.437561    287.732    7.10144   68.17168 3.6015e+01     0.8728    80.3955     0.1043     0.0182  0.000e+00
      4.787    13.4764 221.799521    288.204    7.08343   67.99858 3.6028e+01     0.8819    80.2129     0.1015     0.0180  0.000e+00
      4.815    13.4744 221.890014    288.336    7.05983   67.76919 3.5800e+01     0.8749    80.3544     0.1074     0.0179  0.000e+00
      4.850    13.4713 221.859853    288.320    7.04428   67.61521 3.5057e+01     0.8870    80.1109     0.1246     0.0200  0.000e+00
      4.888    13.4848 221.829681    288.180    7.02043   67.40630 3.4621e+01     0.8781    80.2902     0.1241     0.0197  0.000e+00
      4.923    13.5082 221.859828    288.044    7.00100   67.25461 3.3856e+01     0.8805    80.2409     0.1169     0.0201  0.000e+00
      4.963    13.5255 221.739162    287.758    6.97568   67.03700 3.3223e+01     0.8789    80.2738     0.1164     0.0205  0.000e+00
      5.010    13.5290 221.558181    287.497    6.95230   66.81748 3.2961e+01     0.8815    80.2211     0.1259     0.0217  0.000e+00
      5.058    13.5233 221.407370    287.344    6.93400   66.63311 3.2637e+01     0.8676    80.5008     0.1203     0.0216  0.000e+00
      5.113    13.5141 221.166076    287.099    6.91331   66.42075 3.2198e+01     0.8697    80.4580     0.1185     0.0205  0.000e+00
      5.170    13.5027 221.105760    287.106    6.88232   66.10636 3.1474e+01     0.8626    80.6011     0.1225     0.0201  0.000e+00
      5.224    13.4894 221.045446    287.127    6.86916   65.96048 3.0713e+01     0.8612    80.6291     0.1147     0.0207  0.000e+00
      5.261    13.4747 221.467736    287.785    6.85468   65.80015 3.0123e+01     0.8594    80.6653     0.1080     0.0198  0.000e+00
      5.282    13.4703 221.859863    288.328    6.84550   65.70575 2.9885e+01     0.8693    80.4662     0.1051     0.0185  0.000e+00
      5.296    13.4718 222.101173    288.630    6.84033   65.65841 2.9738e+01     0.8674    80.5057     0.1010     0.0182  0.000e+00
      5.316    13.4984 221.920171    288.195    6.83928   65.68689 2.9780e+01     0.8493    80.8693     0.1058     0.0183  0.000e+00
      5.353    13.5311 221.377208    287.247    6.84063   65.74718 2.9665e+01     0.8547    80.7607     0.1312     0.0186  0.000e+00
      5.417    13.5562 220.743779    286.238    6.84499   65.82549 2.9218e+01     0.8603    80.6472     0.1570     0.0192  0.000e+00
      5.503    13.5506 220.170715    285.537    6.86435   66.00327 2.8296e+01     0.8585    80.6834     0.1465     0.0200  0.000e+00
      5.586    13.4931 219.808826    285.493    6.89886   66.25084 2.7393e+01     0.8506    80.8430     0.1330     0.0225  0.000e+00
      5.646    13.4386 220.200959    286.408    6.95172   66.67803 2.6528e+01     0.8648    80.5567     0.1377     0.0218  0.000e+00
      5.683    13.4150 221.226484    287.919    7.02272   67.32398 2.5977e+01     0.8574    80.7064     0.1455     0.0214  0.000e+00
      5.700    13.3897 221.769439    288.815    7.09792   68.00697 2.5891e+01     0.8581    80.6933     0.1915     0.0211  0.000e+00
      5.695    13.3958 222.101236    289.202    7.16693   68.67750 2.6194e+01     0.8657    80.5386     0.2036     0.0203  0.000e+00
      5.693    13.4841 221.678880    287.989    7.22946   69.41232 2.6472e+01     0.8506    80.8446     0.1787     0.0192  0.000e+00
      5.716    13.5596 220.834269    286.330    7.29806   70.18777 2.6337e+01     0.8561    80.7327     0.1488     0.0185  0.000e+00
      5.772    13.5806 220.321505    285.510    7.41643   71.35924 2.5763e+01     0.8577    80.6998     0.1534     0.0179  0.000e+00
      5.851    13.5688 219.899260    285.050    7.58343   72.94680 2.5015e+01     0.8563    80.7294     0.1487     0.0179  0.000e+00
      5.931    13.5071 219.446899    284.919    7.78737   74.80638 2.4440e+01     0.8515    80.8249     0.1440     0.0182  0.000e+00
      5.997    13.4376 219.386630    285.356    8.00262   76.75586 2.3643e+01     0.8542    80.7706     0.1369     0.0187  0.000e+00
      6.040    13.3929 220.321645    286.906    8.20699   78.63831 2.3307e+01     0.8434    80.9894     0.1252     0.0201  0.000e+00
      6.063    13.3683 220.955063    287.916    8.36578   80.11634 2.3369e+01     0.8463    80.9301     0.1148     0.0204  0.000e+00
      6.076    13.3522 221.286863    288.469    8.47385   81.12238 2.3423e+01     0.8400    81.0584     0.1157     0.0211  0.000e+00
      6.099    13.3660 220.955065    287.933    8.50411   81.43696 2.3258e+01     0.8506    80.8430     0.1154     0.0198  0.000e+00
      6.136    13.3862 220.261329    286.878    8.47253   81.17064 2.2985e+01     0.8612    80.6291     0.1186     0.0188  0.000e+00
      6.196    13.3967 219.688266    286.053    8.38747   80.37431 2.2476e+01     0.8456    80.9449     0.1144     0.0195  0.000e+00
      6.271    13.3843 219.266033    285.595    8.28169   79.33874 2.1819e+01     0.8474    80.9088     0.1088     0.0198  0.000e+00
      6.336    13.3547 219.115257    285.619    8.18045   78.31736 2.1272e+01     0.8463    80.9301     0.1266     0.0202  0.000e+00
      6.381    13.3131 219.688329    286.677    8.10444   77.51821 2.1033e+01     0.8402    81.0552     0.1250     0.0194  0.000e+00
      6.406    13.2898 220.593181    288.034    8.05453   77.00121 2.1007e+01     0.8408    81.0420     0.1249     0.0184  0.000e+00
      6.419    13.2734 220.985301    288.669    8.02130   76.65571 2.1003e+01     0.8376    81.1062     0.1404     0.0182  0.000e+00
      6.432    13.2909 220.985288    288.537    7.99284   76.41357 2.0918e+01     0.8371    81.1177     0.1680     0.0179  0.000e+00
      6.454    13.3340 220.804284    287.977    7.97019   76.26976 2.0841e+01     0.8325    81.2114     0.1640     0.0192  0.000e+00
      6.493    13.3760 220.170860    286.836    7.94821   76.13023 2.0596e+01     0.8325    81.2114     0.1422     0.0207  0.000e+00
      6.554    13.3937 219.507313    285.840    7.92475   75.93509 2.0147e+01     0.8355    81.1489     0.1279     0.0211  0.000e+00
      6.624    13.3887 219.115239    285.366    7.91090   75.79386 1.9645e+01     0.8356    81.1473     0.1205     0.0197  0.000e+00
      6.689    13.3609 218.904143    285.298    7.92595   75.89110 1.9212e+01     0.8215    81.4335     0.1479     0.0188  0.000e+00
      6.742    13.2946 218.964510    285.871    7.96450   76.14814 1.8863e+01     0.8289    81.2838     0.1497     0.0197  0.000e+00
      6.789    13.2394 219.386787    286.836    8.02218   76.60577 1.8543e+01     0.8243    81.3776     0.1364     0.0197  0.000e+00
      6.822    13.2124 220.140823    288.025    8.08105   77.12197 1.8458e+01     0.8203    81.4582     0.1318     0.0203  0.000e+00
      6.841    13.1857 220.472618    288.661    8.13737   77.61328 1.8494e+01     0.8050    81.7707     0.1311     0.0214  0.000e+00
      6.860    13.1865 220.623427    288.852    8.17445   77.96856 1.8425e+01     0.8085    81.7000     0.1244     0.0213  0.000e+00
      6.889    13.2307 220.321779    288.124    8.18456   78.14148 1.8321e+01     0.8054    81.7625     0.1308     0.0210  0.000e+00
      6.930    13.2809 219.989971    287.313    8.16902   78.08015 1.8010e+01     0.8133    81.6013     0.1299     0.0206  0.000e+00
      6.986    13.2992 219.597870    286.663    8.14482   77.88042 1.7682e+01     0.8129    81.6095     0.1337     0.0209  0.000e+00
      7.055    13.2899 219.024839    285.985    8.10772   77.50952 1.7211e+01     0.8177    81.5125     0.1428     0.0211  0.000e+00
      7.124    13.2219 218.693136    286.060    8.08998   77.22303 1.6752e+01     0.8181    81.5026     0.1467     0.0201  0.000e+00
      7.176    13.1448 219.024945    287.073    8.09167   77.10681 1.6453e+01     0.8059    81.7526     0.1344     0.0202  0.000e+00
      7.208    13.1121 219.959936    288.546    8.09683   77.10009 1.6351e+01     0.8048    81.7757     0.1272     0.0204  0.000e+00
      7.225    13.0855 220.321890    289.223    8.11761   77.25228 1.6363e+01     0.7999    81.8744     0.1242     0.0201  0.000e+00
      7.228    13.0914 220.593340    289.534    8.12120   77.29665 1.6438e+01     0.8132    81.6029     0.1283     0.0188  0.000e+00
      7.234    13.1715 220.442475    288.729    8.12035   77.42652 1.6473e+01     0.7999    81.8760     0.1339     0.0182  0.000e+00
      7.261    13.2705 219.688378    286.997    8.10587   77.45859 1.6279e+01     0.8109    81.6506     0.1407     0.0188  0.000e+00
      7.320    13.3348 218.904175    285.493    8.09728   77.48681 1.6042e+01     0.8028    81.8168     0.1392     0.0192  0.000e+00
      7.403    13.3296 218.210526    284.627    8.09832   77.48757 1.5562e+01     0.8114    81.6408     0.1310     0.0186  0.000e+00
      7.493    13.2091 216.853531    283.749    8.13918   77.66999 1.5077e+01     0.8088    81.6934     0.1308     0.0195  0.000e+00
      7.574    13.0525 216.250524    284.124    8.19798   77.95853 1.4629e+01     0.8083    81.7033     0.1312     0.0189  0.000e+00
      7.625    12.9323 217.909231    287.211    8.26462   78.38217 1.4418e+01     0.8086    81.6967     0.1292     0.0192  0.000e+00
      7.649    12.8673 219.266430    289.496    8.31261   78.72315 1.4410e+01     0.8051    81.7691     0.1199     0.0195  0.000e+00
      7.656    12.8186 219.990316    290.826    8.34195   78.91516 1.4500e+01     0.8099    81.6704     0.1125     0.0215  0.000e+00
      7.658    12.8658 219.990282    290.463    8.33064   78.89158 1.4574e+01     0.8088    81.6934     0.1068     0.0211  0.000e+00
      7.675    12.9802 218.693319    287.881    8.28772   78.68558 1.4461e+01     0.8012    81.8480     0.1298     0.0189  0.000e+00
      7.719    13.0682 217.577402    285.750    8.24648   78.44755 1.4190e+01     0.8240    81.3825     0.1486     0.0184  0.000e+00
      7.786    13.0920 216.823463    284.582    8.22164   78.25257 1.3780e+01     0.8168    81.5306     0.1520     0.0189  0.000e+00
      7.862    13.0288 215.979148    283.944    8.22000   78.12653 1.3414e+01     0.8094    81.6819     0.1814     0.0190  0.000e+00
      7.930    12.8893 215.466616    284.314    8.24998   78.16734 1.3209e+01     0.8139    81.5881     0.1767     0.0197  0.000e+00
      7.981    12.7728 216.160262    286.109    8.30200   78.45557 1.3038e+01     0.8086    81.6967     0.1595     0.0197  0.000e+00
      8.015    12.7079 217.849082    288.841    8.34418   78.73995 1.2959e+01     0.8106    81.6572     0.1514     0.0194  0.000e+00
      8.035    12.6646 218.331645    289.813    8.38284   79.02803 1.2948e+01     0.8051    81.7691     0.1425     0.0200  0.000e+00
      8.055    12.6535 218.693559    290.380    8.39712   79.14308 1.2886e+01     0.8078    81.7132     0.1378     0.0195  0.000e+00
      8.084    12.6921 218.090359    289.281    8.39492   79.19089 1.2768e+01     0.8055    81.7609     0.1296     0.0197  0.000e+00
      8.129    12.7325 217.064976    287.613    8.37665   79.08980 1.2564e+01     0.8045    81.7806     0.1436     0.0188  0.000e+00
      8.184    12.7570 215.979345    285.989    8.33751   78.76316 1.2298e+01     0.8073    81.7247     0.2247     0.0182  0.000e+00
      8.242    12.7487 215.466721    285.373    8.30227   78.41536 1.2025e+01     0.8156    81.5552     0.2145     0.0193  0.000e+00
      8.290    12.7060 215.436597    285.657    8.26483   77.98706 1.1855e+01     0.8034    81.8036     0.1873     0.0206  0.000e+00
      8.328    12.6534 215.919111    286.696    8.22039   77.47640 1.1763e+01     0.8139    81.5898     0.1617     0.0195  0.000e+00
      8.358    12.6251 217.155527    288.555    8.18560   77.09979 1.1724e+01     0.8168    81.5289     0.1456     0.0189  0.000e+00
      8.384    12.6116 217.758684    289.460    8.15971   76.83283 1.1680e+01     0.8298    81.2657     0.1402     0.0185  0.000e+00
      8.420    12.5888 217.276182    288.994    8.12333   76.45090 1.1575e+01     0.8130    81.6079     0.1349     0.0194  0.000e+00
      8.471    12.5915 216.341333    287.730    8.07834   76.03190 1.1425e+01     0.8215    81.4335     0.1388     0.0207  0.000e+00
      8.534    12.5993 215.617604    286.708    8.03641   75.65027 1.1167e+01     0.8138    81.5914     0.1421     0.0202  0.000e+00
      8.591    12.5888 215.376377    286.467    7.98665   75.16398 1.0926e+01     0.8198    81.4697     0.1532     0.0198  0.000e+00
      8.635    12.5680 215.768402    287.147    7.94542   74.74127 1.0761e+01     0.8140    81.5865     0.1495     0.0198  0.000e+00
      8.666    12.5607 216.854012    288.648    7.90467   74.34600 1.0645e+01     0.8042    81.7872     0.1457     0.0193  0.000e+00
      8.687    12.5475 217.607947    289.754    7.88214   74.11223 1.0632e+01     0.8039    81.7938     0.1471     0.0198  0.000e+00
      8.705    12.5364 218.090482    290.482    7.85199   73.81050 1.0607e+01     0.8098    81.6737     0.1666     0.0205  0.000e+00
      8.738    12.5892 216.974620    288.590    7.82209   73.61650 1.0506e+01     0.8118    81.6309     0.1578     0.0194  0.000e+00
      8.797    12.6500 215.557265    286.242    7.79475   73.45908 1.0271e+01     0.8069    81.7329     0.1466     0.0182  0.000e+00
      8.868    12.6745 214.501866    284.655    7.77756   73.33708 1.0133e+01     0.8193    81.4796     0.1571     0.0194  0.000e+00
      8.936    12.5833 213.748118    284.343    7.77187   73.13320 9.8917e+00     0.8107    81.6539     0.1594     0.0204  0.000e+00
      8.985    12.4182 214.351282    286.404    7.78441   72.97947 9.7040e+00     0.8068    81.7345     0.1617     0.0211  0.000e+00
      9.014    12.3251 216.281220    289.703    7.78632   72.84485 9.6115e+00     0.8053    81.7642     0.2656     0.0199  0.000e+00
      9.023    12.2698 217.185948    291.347    7.77758   72.67252 9.6030e+00     0.8076    81.7181     0.2448     0.0201  0.000e+00
      9.022    12.2485 217.578008    292.040    7.76236   72.49537 9.6628e+00     0.8157    81.5519     0.2112     0.0194  0.000e+00
      9.033    12.3693 216.341500    289.442    7.72835   72.37466 9.6765e+00     0.8115    81.6375     0.1796     0.0194  0.000e+00
      9.066    12.4833 214.924150    286.671    7.70230   72.31587 9.5401e+00     0.7997    81.8793     0.1652     0.0207  0.000e+00
      9.128    12.5199 213.295892    284.221    7.72482   72.58676 9.3840e+00     0.7790    82.3037     0.1774     0.0213  0.000e+00
      9.213    12.4216 210.672964    281.464    7.79582   73.09095 9.0955e+00     0.7865    82.1491     0.1936     0.0210  0.000e+00
      9.302    12.1858 208.804066    280.736    7.92818   73.93642 8.8361e+00     0.7808    82.2675     0.2020     0.0208  0.000e+00
      9.369    11.9790 209.105658    282.714    8.07765   74.97787 8.6559e+00     0.7793    82.2971     0.1930     0.0208  0.000e+00
      9.413    11.8406 211.788855    287.417    8.23758   76.22271 8.6054e+00     0.7749    82.3893     0.1804     0.0212  0.000e+00
      9.431    11.7621 214.773893    292.091    8.36848   77.29651 8.5612e+00     0.7756    82.3744     0.1622     0.0209  0.000e+00
      9.429    11.7188 216.341966    294.571    8.48198   78.26790 8.6161e+00     0.7807    82.2692     0.1463     0.0204  0.000e+00
      9.428    11.8559 215.678453    292.574    8.52970   78.95465 8.6329e+00     0.7888    82.1030     0.1405     0.0204  0.000e+00
      9.443    12.0748 213.446964    287.837    8.52528   79.30662 8.6237e+00     0.7781    82.3235     0.1529     0.0205  0.000e+00
      9.487    12.1837 211.547429    284.440    8.51643   79.41948 8.4930e+00     0.7778    82.3284     0.1461     0.0195  0.000e+00
      9.563    12.1752 209.738588    282.073    8.50865   79.33103 8.2977e+00     0.7845    82.1902     0.1445     0.0190  0.000e+00
      9.648    12.0264 207.869713    280.683    8.51033   79.07873 8.0336e+00     0.7861    82.1573     0.1624     0.0194  0.000e+00
      9.727    11.8248 206.995708    281.033    8.51223   78.73423 7.8320e+00     0.7821    82.2396     0.1688     0.0194  0.000e+00
      9.782    11.6791 209.075724    284.985    8.51491   78.49827 7.7351e+00     0.7739    82.4090     0.1603     0.0207  0.000e+00
      9.807    11.6064 212.090518    289.668    8.50033   78.23475 7.7186e+00     0.7733    82.4205     0.1686     0.0207  0.000e+00
      9.812    11.5522 213.567941    292.119    8.50078   78.14228 7.7365e+00     0.7799    82.2856     0.1756     0.0194  0.000e+00
      9.811    11.6029 213.929730    292.208    8.49129   78.14593 7.7448e+00     0.7840    82.2017     0.1627     0.0211  0.000e+00
      9.820    11.7794 212.693400    289.125    8.47906   78.34813 7.7530e+00     0.7809    82.2642     0.1524     0.0221  0.000e+00
      9.851    11.9175 210.552732    285.144    8.47507   78.55740 7.7022e+00     0.7721    82.4452     0.1522     0.0218  0.000e+00
      9.910    11.9522 208.864526    282.593    8.49938   78.84423 7.5516e+00     0.7776    82.3333     0.1553     0.0220  0.000e+00
      9.987    11.9039 207.628656    281.288    8.54940   79.22087 7.3607e+00     0.7791    82.3021     0.1584     0.0202  0.000e+00
     10.064    11.7626 206.453204    280.771    8.61733   79.59323 7.1783e+00     0.7824    82.2346     0.1533     0.0188  0.000e+00
     10.130    11.6210 206.091606    281.363    8.69001   80.00527 7.0341e+00     0.7751    82.3843     0.1685     0.0184  0.000e+00
     10.176    11.5261 208.081066    284.817    8.73921   80.28425 6.9730e+00     0.7789    82.3070     0.1869     0.0172  0.000e+00
     10.203    11.4760 210.522894    288.555    8.76187   80.40088 6.9309e+00     0.7883    82.1129     0.1774     0.0187  0.000e+00
     10.220    11.4271 211.125884    289.771    8.75957   80.28968 6.9248e+00     0.7834    82.2132     0.1602     0.0200  0.000e+00
     10.236    11.4376 211.728851    290.514    8.73046   80.04253 6.9088e+00     0.7757    82.3728     0.1479     0.0200  0.000e+00
     10.257    11.4844 211.155993    289.357    8.66908   79.56492 6.8707e+00     0.7892    82.0948     0.1644     0.0191  0.000e+00
     10.296    11.5079 209.347160    286.693    8.59430   78.92041 6.8256e+00     0.7789    82.3070     0.1724     0.0186  0.000e+00
     10.351    11.5327 207.628913    284.147    8.52335   78.31285 6.7063e+00     0.7745    82.3958     0.1952     0.0175  0.000e+00
     10.408    11.5405 207.056197    283.303    8.45788   77.72510 6.5844e+00     0.7765    82.3547     0.1807     0.0172  0.000e+00
     10.464    11.5033 206.694519    283.096    8.45302   77.61399 6.4738e+00     0.7796    82.2922     0.1669     0.0174  0.000e+00
     10.515    11.4435 206.513710    283.313    8.47680   77.72566 6.3572e+00     0.7850    82.1803     0.1494     0.0177  0.000e+00
     10.561    11.3939 207.267296    284.734    8.51666   78.00268 6.2761e+00     0.7841    82.1984     0.1586     0.0180  0.000e+00
     10.593    11.3774 208.714205    286.852    8.55860   78.35746 6.2360e+00     0.7865    82.1507     0.1607     0.0180  0.000e+00
     10.623    11.3771 209.497984    287.932    8.60006   78.73672 6.1928e+00     0.7853    82.1738     0.1526     0.0188  0.000e+00
     10.653    11.3650 209.769308    288.400    8.61492   78.85108 6.1444e+00     0.7859    82.1622     0.1667     0.0185  0.000e+00
     10.685    11.3478 209.859759    288.661    8.60438   78.72344 6.0974e+00     0.7769    82.3465     0.1871     0.0188  0.000e+00
     10.721    11.3367 209.558306    288.335    8.56530   78.34569 6.0314e+00     0.7783    82.3185     0.1814     0.0191  0.000e+00
     10.764    11.3395 208.985539    287.524    8.51487   77.88929 5.9375e+00     0.7845    82.1902     0.1728     0.0193  0.000e+00
     10.815    11.3414 207.930485    286.058    8.42024   77.02666 5.8984e+00     0.7777    82.3317     0.1653     0.0198  0.000e+00
     10.868    11.3351 207.207056    285.112    8.33873   76.26992 5.7920e+00     0.7784    82.3169     0.1503     0.0200  0.000e+00
     10.921    11.3239 206.724790    284.536    8.27152   75.63555 5.7068e+00     0.7761    82.3646     0.1425     0.0186  0.000e+00
     10.971    11.3032 206.332964    284.159    8.22976   75.21764 5.6198e+00     0.7777    82.3317     0.1553     0.0181  0.000e+00
     11.015    11.2816 206.634395    284.743    8.20814   74.98294 5.5589e+00     0.7812    82.2593     0.1582     0.0187  0.000e+00
     11.048    11.2715 207.809963    286.443    8.21020   74.98459 5.5016e+00     0.7888    82.1030     0.1451     0.0192  0.000e+00
     11.074    11.2766 208.714283    287.650    8.22741   75.15085 5.4732e+00     0.7836    82.2099     0.1447     0.0194  0.000e+00
     11.098    11.2794 209.226749    288.333    8.24719   75.33657 5.4361e+00     0.7672    82.5472     0.1618     0.0195  0.000e+00
     11.127    11.2735 209.015736    288.089    8.25690   75.41509 5.4003e+00     0.7780    82.3251     0.1720     0.0194  0.000e+00
     11.168    11.2676 207.990829    286.723    8.25287   75.36759 5.3341e+00     0.7662    82.5669     0.1637     0.0201  0.000e+00
     11.223    11.2655 206.694693    284.953    8.22549   75.11352 5.2490e+00     0.7737    82.4139     0.1611     0.0204  0.000e+00
     11.285    11.2599 205.579481    283.459    8.18194   74.70600 5.1642e+00     0.7690    82.5110     0.2192     0.0201  0.000e+00
     11.346    11.2409 204.856142    282.610    8.12996   74.19865 5.0872e+00     0.7796    82.2922     0.2511     0.0197  0.000e+00
     11.397    11.2218 205.217829    283.258    8.07635   73.67702 5.0104e+00     0.7800    82.2840     0.2270     0.0186  0.000e+00
     11.433    11.2232 206.574159    285.119    8.03621   73.31365 4.9534e+00     0.7676    82.5389     0.2088     0.0198  0.000e+00
     11.461    11.2331 207.840140    286.789    8.01752   73.16015 4.9277e+00     0.7634    82.6261     0.1896     0.0202  0.000e+00
     11.482    11.2276 208.382734    287.580    8.00842   73.06816 4.8934e+00     0.7684    82.5225     0.1710     0.0200  0.000e+00
     11.509    11.2172 208.412886    287.705    8.00439   73.01380 4.8629e+00     0.7714    82.4600     0.1535     0.0198  0.000e+00
     11.544    11.2107 207.689440    286.758    7.98749   72.84857 4.8325e+00     0.7740    82.4073     0.1458     0.0189  0.000e+00
     11.584    11.2124 206.724877    285.413    7.96647   72.65937 4.7629e+00     0.7660    82.5718     0.1441     0.0188  0.000e+00
     11.629    11.2143 205.911063    284.274    7.93222   72.34989 4.6960e+00     0.7675    82.5406     0.1622     0.0184  0.000e+00
     11.679    11.2123 205.368540    283.541    7.89580   72.01421 4.6200e+00     0.7686    82.5176     0.1761     0.0191  0.000e+00
     11.737    11.2046 204.795896    282.810    7.87132   71.77817 4.5428e+00     0.7809    82.2642     0.1668     0.0202  0.000e+00
     11.791    11.1931 204.645210    282.692    7.85746   71.63253 4.4990e+00     0.7709    82.4715     0.1559     0.0189  0.000e+00
     11.835    11.1849 205.037025    283.298    7.88493   71.86954 4.4445e+00     0.7694    82.5028     0.1447     0.0192  0.000e+00
     11.875    11.1860 205.489121    283.913    7.93483   72.32641 4.3969e+00     0.7734    82.4189     0.1436     0.0191  0.000e+00
     11.910    11.1940 206.272773    284.934    8.00181   72.95055 4.3537e+00     0.7713    82.4633     0.1820     0.0194  0.000e+00
     11.938    11.2004 207.086598    286.007    8.06808   73.56579 4.3296e+00     0.7717    82.4551     0.1770     0.0188  0.000e+00
     11.968    11.1994 207.297597    286.306    8.11515   73.99345 4.2986e+00     0.7739    82.4090     0.1608     0.0187  0.000e+00
     12.003    11.1961 206.815322    285.666    8.13439   74.16303 4.2464e+00     0.7757    82.3712     0.1526     0.0197  0.000e+00
     12.048    11.1957 205.579538    283.962    8.13194   74.13962 4.1934e+00     0.7564    82.7709     0.1582     0.0201  0.000e+00
     12.094    11.1966 205.157580    283.372    8.09360   73.79154 4.1395e+00     0.7604    82.6870     0.1524     0.0208  0.000e+00
     12.144    11.1932 204.886328    283.024    8.03373   73.23980 4.0739e+00     0.7642    82.6097     0.1633     0.0201  0.000e+00
     12.194    11.1844 204.464391    282.510    7.98236   72.75663 4.0114e+00     0.7708    82.4731     0.1782     0.0199  0.000e+00
     12.251    11.1741 204.102739    282.091    7.94466   72.39579 3.9470e+00     0.7637    82.6196     0.2258     0.0193  0.000e+00
     12.308    11.1631 203.801369    281.760    7.93407   72.28085 3.9046e+00     0.7608    82.6788     0.2238     0.0189  0.000e+00
     12.355    11.1549 204.102754    282.241    7.95605   72.46741 3.8550e+00     0.7608    82.6788     0.1981     0.0185  0.000e+00
     12.388    11.1536 205.579573    284.293    8.00064   72.87185 3.8185e+00     0.7497    82.9091     0.1818     0.0181  0.000e+00
     12.405    11.1608 206.785212    285.904    8.05794   73.40617 3.8157e+00     0.7528    82.8449     0.1729     0.0185  0.000e+00
     12.411    11.1625 207.568917    286.973    8.11777   73.95458 3.8253e+00     0.7565    82.7692     0.1629     0.0194  0.000e+00
     12.418    11.1936 207.568896    286.726    8.15577   74.35400 3.8198e+00     0.7576    82.7462     0.1677     0.0201  0.000e+00
     12.444    11.2290 206.031632    284.325    8.15983   74.45116 3.7870e+00     0.7539    82.8219     0.1800     0.0201  0.000e+00
     12.499    11.2523 204.313659    281.773    8.14736   74.37668 3.7134e+00     0.7428    83.0522     0.1868     0.0192  0.000e+00
     12.582    11.2504 203.409531    280.541    8.10138   73.95352 3.6222e+00     0.7453    83.0012     0.1764     0.0188  0.000e+00
     12.668    11.2204 202.927365    280.108    8.06159   73.53927 3.5338e+00     0.7547    82.8054     0.1810     0.0199  0.000e+00
     12.742    11.1908 202.867113    280.254    8.03449   73.24199 3.4600e+00     0.7518    82.8663     0.1859     0.0214  0.000e+00
     12.792    11.1677 204.163030    282.224    8.01538   73.02939 3.4123e+00     0.7399    83.1131     0.1829     0.0211  0.000e+00
     12.816    11.1599 206.423520    285.410    8.00553   72.92729 3.4098e+00     0.7558    82.7824     0.1798     0.0211  0.000e+00
     12.820    11.1520 207.388074    286.807    8.01000   72.95490 3.4209e+00     0.7572    82.7528     0.1716     0.0205  0.000e+00
     12.823    11.1730 207.659347    287.015    8.02154   73.09554 3.4339e+00     0.7597    82.7018     0.1815     0.0192  0.000e+00
     12.841    11.2544 206.031622    284.126    8.01929   73.21177 3.4160e+00     0.7463    82.9798     0.1830     0.0192  0.000e+00
     12.890    11.3263 204.494448    281.448    8.01815   73.32195 3.3725e+00     0.7438    83.0308     0.1821     0.0200  0.000e+00
     12.956    11.3355 203.620442    280.174    8.03067   73.45164 3.2936e+00     0.7503    82.8959     0.1737     0.0199  0.000e+00
     13.027    11.2931 203.138280    279.837    8.08774   73.90142 3.2352e+00     0.7528    82.8449     0.1640     0.0197  0.000e+00
     13.090    11.2349 202.927364    279.995    8.19549   74.78576 3.1721e+00     0.7493    82.9173     0.1576     0.0187  0.000e+00
     13.137    11.1905 203.710954    281.422    8.33561   75.98689 3.1339e+00     0.7650    82.5916     0.1588     0.0185  0.000e+00
     13.167    11.1696 205.519297    284.084    8.49108   77.36745 3.1096e+00     0.7616    82.6623     0.1569     0.0191  0.000e+00
     13.185    11.1543 205.941273    284.788    8.62124   78.52579 3.0967e+00     0.7523    82.8548     0.1546     0.0195  0.000e+00
     13.205    11.1350 206.031709    285.065    8.72594   79.44409 3.1023e+00     0.7479    82.9469     0.1474     0.0202  0.000e+00
     13.233    11.1501 205.428891    284.112    8.78047   79.96815 3.0833e+00     0.7363    83.1871     0.1406     0.0201  0.000e+00
     13.275    11.1817 204.404136    282.448    8.76929   79.92417 3.0389e+00     0.7331    83.2545     0.1373     0.0209  0.000e+00
     13.327    11.1798 203.590415    281.338    8.72413   79.50896 3.0050e+00     0.7376    83.1608     0.1364     0.0200  0.000e+00
     13.382    11.1656 203.289054    281.033    8.66892   78.97973 2.9494e+00     0.7330    83.2562     0.1373     0.0186  0.000e+00
     13.431    11.1493 203.228792    281.076    8.62688   78.56709 2.9091e+00     0.7372    83.1690     0.1414     0.0180  0.000e+00
     13.476    11.1337 203.168530    281.114    8.61030   78.38787 2.8739e+00     0.7337    83.2414     0.1424     0.0175  0.000e+00
     13.520    11.1217 203.228812    281.291    8.63310   78.57369 2.8423e+00     0.7452    83.0028     0.1471     0.0187  0.000e+00
     13.561    11.1120 203.530190    281.784    8.65961   78.79747 2.8105e+00     0.7452    83.0028     0.1550     0.0188  0.000e+00
     13.599    11.1079 203.801430    282.191    8.68080   78.98303 2.7856e+00     0.7256    83.4108     0.1534     0.0187  0.000e+00
     13.640    11.1118 203.379506    281.576    8.69925   79.15787 2.7345e+00     0.7285    83.3499     0.1470     0.0189  0.000e+00
     13.684    11.1089 203.349371    281.557    8.66195   78.81315 2.7107e+00     0.7249    83.4256     0.1427     0.0199  0.000e+00
     13.725    11.1007 203.439789    281.747    8.64161   78.61315 2.7043e+00     0.7161    83.6082     0.1418     0.0186  0.000e+00
     13.764    11.0958 203.289108    281.576    8.59389   78.17018 2.6769e+00     0.7146    83.6395     0.1437     0.0185  0.000e+00
     13.808    11.0919 203.289111    281.606    8.54654   77.73257 2.6460e+00     0.7252    83.4190     0.1443     0.0187  0.000e+00
     13.845    11.0862 203.409664    281.818    8.50714   77.36408 2.6191e+00     0.7217    83.4914     0.1417     0.0188  0.000e+00
     13.881    11.0838 203.650764    282.171    8.47922   77.10595 2.6020e+00     0.7204    83.5177     0.1316     0.0188  0.000e+00
     13.914    11.0857 203.620626    282.114    8.46121   76.94545 2.5724e+00     0.7202    83.5227     0.1266     0.0194  0.000e+00
     13.947    11.0876 203.590488    282.057    8.45098   76.85589 2.5495e+00     0.7100    83.7365     0.1272     0.0185  0.000e+00
     13.987    11.0890 203.349390    281.713    8.45352   76.88131 2.5296e+00     0.7166    83.5983     0.1255     0.0197  0.000e+00
     14.037    11.0867 202.987752    281.229    8.43300   76.69059 2.4867e+00     0.7055    83.8303     0.1278     0.0204  0.000e+00
     14.094    11.0799 202.716531    280.906    8.41641   76.52760 2.4346e+00     0.7043    83.8549     0.1318     0.0199  0.000e+00
     14.143    11.0731 202.746673    281.001    8.38449   76.22533 2.3958e+00     0.7119    83.6970     0.1437     0.0200  0.000e+00
     14.185    11.0684 203.138450    281.581    8.36254   76.01763 2.3788e+00     0.7001    83.9438     0.1471     0.0194  0.000e+00
     14.216    11.0707 203.982293    282.732    8.34840   75.89354 2.3758e+00     0.6931    84.0902     0.1482     0.0204  0.000e+00
     14.237    11.0765 204.494640    283.397    8.33453   75.77773 2.3741e+00     0.6876    84.2070     0.1446     0.0200  0.000e+00
     14.259    11.0750 204.705613    283.701    8.32450   75.68397 2.3607e+00     0.6955    84.0392     0.1495     0.0191  0.000e+00
     14.286    11.0767 204.223395    283.019    8.29670   75.43406 2.3499e+00     0.6967    84.0145     0.1747     0.0202  0.000e+00
     14.329    11.0956 203.469941    281.828    8.26557   75.18356 2.3200e+00     0.6914    84.1264     0.1652     0.0201  0.000e+00
     14.390    11.1025 202.867203    280.939    8.22050   74.78528 2.2730e+00     0.6941    84.0688     0.1556     0.0198  0.000e+00
     14.460    11.0977 202.354897    280.267    8.17291   74.34386 2.2281e+00     0.7051    83.8385     0.1494     0.0197  0.000e+00
     14.530    11.0849 202.083689    279.991    8.11840   73.82618 2.1789e+00     0.7015    83.9142     0.1456     0.0202  0.000e+00
     14.589    11.0728 202.234374    280.294    8.07685   73.42782 2.1460e+00     0.6977    83.9931     0.1464     0.0202  0.000e+00
     14.627    11.0704 203.017911    281.398    8.03363   73.03121 2.1323e+00     0.7016    83.9125     0.1478     0.0190  0.000e+00
     14.651    11.0732 204.163128    282.963    8.01031   72.82426 2.1229e+00     0.7098    83.7398     0.1476     0.0192  0.000e+00
     14.662    11.0660 204.585072    283.605    7.99688   72.69020 2.1214e+00     0.7130    83.6740     0.1433     0.0187  0.000e+00
     14.672    11.0621 204.886464    284.054    7.98629   72.58735 2.1093e+00     0.7246    83.4305     0.1463     0.0191  0.000e+00
     14.692    11.0849 204.223397    282.955    7.97423   72.51576 2.1062e+00     0.7167    83.5967     0.1474     0.0175  0.000e+00
     14.736    11.0957 203.228853    281.493    7.95962   72.40065 2.0893e+00     0.7117    83.7003     0.1468     0.0185  0.000e+00
     14.792    11.0966 202.415175    280.359    7.93698   72.19606 2.0645e+00     0.7087    83.7628     0.1574     0.0174  0.000e+00
     14.863    11.0841 201.963156    279.830    7.92293   72.04724 2.0151e+00     0.7059    83.8220     0.1682     0.0185  0.000e+00
     14.936    11.0634 201.691958    279.615    7.93118   72.08777 1.9783e+00     0.7090    83.7562     0.2074     0.0208  0.000e+00
     14.998    11.0458 201.782374    279.877    7.96201   72.33849 1.9455e+00     0.7145    83.6427     0.2350     0.0231  0.000e+00
     15.032    11.0359 203.349445    282.128    8.01940   72.84374 1.9198e+00     0.7087    83.7628     0.2436     0.0240  0.000e+00
     15.042    11.0335 204.434407    283.652    8.08196   73.40838 1.9191e+00     0.7256    83.4092     0.2708     0.0240  0.000e+00
     15.043    11.0363 204.856350    284.216    8.14683   74.00236 1.9319e+00     0.7272    83.3763     0.2894     0.0253  0.000e+00
     15.046    11.0539 204.796060    283.993    8.20313   74.54416 1.9308e+00     0.7238    83.4486     0.2937     0.0258  0.000e+00
     15.049    11.0699 204.796049    283.867    8.25620   75.05414 1.9262e+00     0.7381    83.1509     0.3021     0.0256  0.000e+00
     15.053    11.0855 204.886456    283.869    8.30436   75.51926 1.9223e+00     0.7333    83.2496     0.2950     0.0259  0.000e+00
     15.058    11.1212 204.916572    283.630    8.35424   76.03547 1.9308e+00     0.7271    83.3779     0.2744     0.0245  0.000e+00
     15.061    11.1650 204.856264    283.203    8.41061   76.62590 1.9167e+00     0.7205    83.5161     0.2760     0.0237  0.000e+00
     15.064    11.1970 204.916521    283.036    8.47061   77.22951 1.9163e+00     0.7242    83.4404     0.2852     0.0237  0.000e+00
     15.065    11.2146 204.916510    282.898    8.53303   77.83015 1.9096e+00     0.7542    82.8153     0.2988     0.0233  0.000e+00
     15.067    11.2219 204.856226    282.758    8.58624   78.32869 1.9135e+00     0.7271    83.3795     0.3203     0.0243  0.000e+00
     15.068    11.2237 204.856225    282.745    8.61204   78.56712 1.9138e+00     0.7343    83.2298     0.3285     0.0252  0.000e+00
     15.069    11.2226 204.735670    282.586    8.61518   78.59389 1.9198e+00     0.7239    83.4453     0.3323     0.0247  0.000e+00
     15.068    11.2195 204.705533    282.569    8.58866   78.34626 1.9047e+00     0.7257    83.4075     0.3287     0.0242  0.000e+00
     15.070    11.2146 204.374010    282.149    8.53890   77.88351 1.8949e+00     0.7256    83.4108     0.3169     0.0235  0.000e+00
     15.072    11.2106 204.042493    281.723    8.45918   77.14917 1.8630e+00     0.7262    83.3976     0.3122     0.0231  0.000e+00
     15.078    11.2100 203.530154    281.021    8.37776   76.40523 1.8299e+00     0.7329    83.2578     0.3156     0.0227  0.000e+00
     15.091    11.2086 202.806874    280.033    8.29507   75.64848 1.7806e+00     0.7276    83.3680     0.3193     0.0215  0.000e+00
     15.094    11.1956 202.656202    279.925    8.22393   74.97722 1.7862e+00     0.7309    83.2989     0.3016     0.0211  0.000e+00
