* Sea-Bird SBE19plus Data File:
* FileName = C:\Users\Steve Constant\Desktop\CHRP2017\CTD\raw\chp32017022.hex
* Software Version 1.59
* Temperature SN =  6337
* Conductivity SN =  6337
* System UpLoad Time = May 26 2017 12:35:08
* ds
* SBE 19plus V 2.5.2  SERIAL NO. 6337    26 May 2017 08:26:09
* vbatt = 12.1, vlith =  8.2, ioper =  61.3 ma, ipump =  48.3 ma,
* iext01 =   5.8 ma, iext2345 =  86.7 ma
* status = not logging
* number of scans to average = 1
* samples = 300534, free = 2560254, casts = 22
* mode = profile, minimum cond freq = 3154, pump delay = 40 sec
* autorun = no, ignore magnetic switch = no
* battery type = alkaline, battery cutoff =  7.5 volts
* pressure sensor = strain gauge, range = 160.0
* SBE 38 = no, WETLABS = no, OPTODE = no, SBE63 = no, Gas Tension Device = no
* Ext Volt 0 = yes, Ext Volt 1 = yes
* Ext Volt 2 = yes, Ext Volt 3 = yes
* Ext Volt 4 = yes, Ext Volt 5 = yes
* echo characters = yes
* output format = raw HEX

* S>
*
* SBE 19plus V 2.5.2  SERIAL NO. 6337    26 May 2017 08:26:47
* temperature:  13-Jan-17
*     TA0 = 1.295807e-03
*     TA1 = 2.588888e-04
*     TA2 = 9.706836e-08
*     TA3 = 1.382757e-07
*     TOFFSET = 0.000000e+00
* conductivity:  13-Jan-17
*     G = -1.015047e+00
*     H = 1.449340e-01
*     I = -4.359138e-04
*     J = 5.256769e-05
*     CPCOR = -9.570000e-08
*     CTCOR = 3.250000e-06
*     CSLOPE = 1.000000e+00
* pressure S/N = 2882551, range = 160 psia:  11-Jan-17
*     PA0 = -1.431544e-01
*     PA1 = 4.887645e-04
*     PA2 = -6.439018e-12
*     PTCA0 = 5.240819e+05
*     PTCA1 = -1.723854e+01
*     PTCA2 = 1.164354e-01
*     PTCB0 = 2.491288e+01
*     PTCB1 = -1.025000e-03
*     PTCB2 = 0.000000e+00
*     PTEMPA0 = -6.474687e+01
*     PTEMPA1 = 5.145625e+01
*     PTEMPA2 = -2.579592e-01
*     POFFSET = 0.000000e+00
* volt 0: offset = -4.766105e-02, slope = 1.249330e+00
* volt 1: offset = -4.904947e-02, slope = 1.248985e+00
* volt 2: offset = -4.772842e-02, slope = 1.248965e+00
* volt 3: offset = -4.803053e-02, slope = 1.249328e+00
* volt 4: offset = -4.743158e-02, slope = 1.248557e+00
* volt 5: offset = -4.724737e-02, slope = 1.251092e+00
*     EXTFREQSF = 9.999918e-01
* dh
* cast  22 24 May 2017 06:09:51 samples 299101 to 300534, avg = 1, stop = mag switch

* S>
# nquan = 12
# nvalues = 828                                   
# units = specified
# name 0 = depFM: Depth [fresh water, m]
# name 1 = tv290C: Temperature [ITS-90, deg C]
# name 2 = c0uS/cm: Conductivity [uS/cm]
# name 3 = specc: Specific Conductance [uS/cm]
# name 4 = sbeox0Mg/L: Oxygen, SBE 43 [mg/l]
# name 5 = sbeox0PS: Oxygen, SBE 43 [% saturation]
# name 6 = par: PAR/Irradiance, Biospherical/Licor
# name 7 = CStarAt0: Beam Attenuation, WET Labs C-Star [1/m]
# name 8 = CStarTr0: Beam Transmission, WET Labs C-Star [%]
# name 9 = chloroflTC0: Chlorophyll, Turner Cyclops [ug/l]
# name 10 = phycyflTC0: Phycocyanin, Turner Cyclops [RFU]
# name 11 = flag:  0.000e+00
# span 0 =     -0.334,     22.159                 
# span 1 =     9.6102,    12.7022                 
# span 2 =   8.653965, 206.302034                 
# span 3 =     11.499,    284.638                 
# span 4 =    7.88080,   10.56088                 
# span 5 =   71.10322,   96.33550                 
# span 6 = 2.7336e-01, 5.7648e+02                 
# span 7 =     0.1123,    19.5560                 
# span 8 =     0.7529,    97.2304                 
# span 9 =     0.0319,     0.7987                 
# span 10 =     0.0000,     0.9225                
# span 11 = 0.0000e+00, 0.0000e+00                
# interval = seconds: 0.25
# start_time = May 24 2017 06:09:51 [Instrument's time stamp, header]
# bad_flag = -9.990e-29
# <Sensors count="9" >
#   <sensor Channel="1" >
#     <!-- Count, Temperature -->
#     <TemperatureSensor SensorID="58" >
#       <SerialNumber>6337</SerialNumber>
#       <CalibrationDate>13-Jan-17</CalibrationDate>
#       <A0>1.29580686e-003</A0>
#       <A1>2.58888790e-004</A1>
#       <A2>9.70683569e-008</A2>
#       <A3>1.38275720e-007</A3>
#       <Slope>1.00000000</Slope>
#       <Offset>0.0000</Offset>
#     </TemperatureSensor>
#   </sensor>
#   <sensor Channel="2" >
#     <!-- Frequency 0, Conductivity -->
#     <ConductivitySensor SensorID="3" >
#       <SerialNumber>6337</SerialNumber>
#       <CalibrationDate>13-Jan-17</CalibrationDate>
#       <UseG_J>1</UseG_J>
#       <!-- Cell const and series R are applicable only for wide range sensors. -->
#       <SeriesR>0.0000</SeriesR>
#       <CellConst>2000.0000</CellConst>
#       <ConductivityType>0</ConductivityType>
#       <Coefficients equation="0" >
#         <A>0.00000000e+000</A>
#         <B>0.00000000e+000</B>
#         <C>0.00000000e+000</C>
#         <D>0.00000000e+000</D>
#         <M>0.0</M>
#         <CPcor>-9.57000000e-008</CPcor>
#       </Coefficients>
#       <Coefficients equation="1" >
#         <G>-1.01504657e+000</G>
#         <H>1.44933984e-001</H>
#         <I>-4.35913838e-004</I>
#         <J>5.25676850e-005</J>
#         <CPcor>-9.57000000e-008</CPcor>
#         <CTcor>3.2500e-006</CTcor>
#         <!-- WBOTC not applicable unless ConductivityType = 1. -->
#         <WBOTC>0.00000000e+000</WBOTC>
#       </Coefficients>
#       <Slope>1.00000000</Slope>
#       <Offset>0.00000</Offset>
#     </ConductivitySensor>
#   </sensor>
#   <sensor Channel="3" >
#     <!-- Count, Pressure, Strain Gauge -->
#     <PressureSensor SensorID="46" >
#       <SerialNumber>6337</SerialNumber>
#       <CalibrationDate>11-Jan-17</CalibrationDate>
#       <PA0>-1.43154376e-001</PA0>
#       <PA1>4.88764480e-004</PA1>
#       <PA2>-6.43901847e-012</PA2>
#       <PTEMPA0>-6.47468750e+001</PTEMPA0>
#       <PTEMPA1>5.14562526e+001</PTEMPA1>
#       <PTEMPA2>-2.57959185e-001</PTEMPA2>
#       <PTCA0>5.24081949e+005</PTCA0>
#       <PTCA1>-1.72385379e+001</PTCA1>
#       <PTCA2>1.16435406e-001</PTCA2>
#       <PTCB0>2.49128750e+001</PTCB0>
#       <PTCB1>-1.02500000e-003</PTCB1>
#       <PTCB2>0.00000000e+000</PTCB2>
#       <Offset>0.000000</Offset>
#     </PressureSensor>
#   </sensor>
#   <sensor Channel="4" >
#     <!-- A/D voltage 0, Oxygen, SBE 43 -->
#     <OxygenSensor SensorID="38" >
#       <SerialNumber>2361</SerialNumber>
#       <CalibrationDate>20-Jan-17</CalibrationDate>
#       <Use2007Equation>1</Use2007Equation>
#       <CalibrationCoefficients equation="0" >
#         <!-- Coefficients for Owens-Millard equation. -->
#         <Boc>0.0000</Boc>
#         <Soc>0.0000e+000</Soc>
#         <offset>0.0000</offset>
#         <Pcor>0.00e+000</Pcor>
#         <Tcor>0.0000</Tcor>
#         <Tau>0.0</Tau>
#       </CalibrationCoefficients>
#       <CalibrationCoefficients equation="1" >
#         <!-- Coefficients for Sea-Bird equation - SBE calibration in 2007 and later. -->
#         <Soc>3.9698e-001</Soc>
#         <offset>-0.4986</offset>
#         <A>-3.9823e-003</A>
#         <B> 2.4447e-004</B>
#         <C>-3.3613e-006</C>
#         <D0> 2.5826e+000</D0>
#         <D1> 1.92634e-004</D1>
#         <D2>-4.64803e-002</D2>
#         <E> 3.6000e-002</E>
#         <Tau20> 1.0800</Tau20>
#         <H1>-3.3000e-002</H1>
#         <H2> 5.0000e+003</H2>
#         <H3> 1.4500e+003</H3>
#       </CalibrationCoefficients>
#     </OxygenSensor>
#   </sensor>
#   <sensor Channel="5" >
#     <!-- A/D voltage 1, Free -->
#   </sensor>
#   <sensor Channel="6" >
#     <!-- A/D voltage 2, PAR/Irradiance, Biospherical/Licor -->
#     <PAR_BiosphericalLicorChelseaSensor SensorID="42" >
#       <SerialNumber>70234</SerialNumber>
#       <CalibrationDate>11/29/16</CalibrationDate>
#       <M>1.00000000</M>
#       <B>0.00000000</B>
#       <CalibrationConstant>10917030568.00000000</CalibrationConstant>
#       <Multiplier>1.00000000</Multiplier>
#       <Offset>-0.09353959</Offset>
#     </PAR_BiosphericalLicorChelseaSensor>
#   </sensor>
#   <sensor Channel="7" >
#     <!-- A/D voltage 3, Transmissometer, WET Labs C-Star -->
#     <WET_LabsCStar SensorID="71" >
#       <SerialNumber>CST-484PR</SerialNumber>
#       <CalibrationDate>12/23/16</CalibrationDate>
#       <M>21.5610</M>
#       <B>-1.2721</B>
#       <PathLength>0.250</PathLength>
#     </WET_LabsCStar>
#   </sensor>
#   <sensor Channel="8" >
#     <!-- A/D voltage 4, Fluorometer, Turner Cyclops -->
#     <Fluorometer SensorID="68" >
#       <SerialNumber></SerialNumber>
#       <CalibrationDate></CalibrationDate>
#       <ScaleFactor>1.00000000e+000</ScaleFactor>
#       <Offset>0.00000000e+000</Offset>
#       <!-- 1 = C, Chlorophyll -->
#       <!-- 2 = R, Rhodamine -->
#       <!-- 3 = F, Fluorescein -->
#       <!-- 4 = P, Phycocyanin -->
#       <!-- 5 = E, Phycoerythrin -->
#       <!-- 6 = U, CDOM -->
#       <!-- 7 = O, CrudeOil -->
#       <!-- 8 = B, OpticalBrightness -->
#       <!-- 9 = T, Turbidity -->
#       <!-- 10 = G, Refined Fuels -->
#       <MeasuredParameter>4</MeasuredParameter>
#     </Fluorometer>
#   </sensor>
#   <sensor Channel="9" >
#     <!-- A/D voltage 5, Fluorometer, Turner Cyclops, 2 -->
#     <Fluorometer SensorID="68" >
#       <SerialNumber></SerialNumber>
#       <CalibrationDate></CalibrationDate>
#       <ScaleFactor>1.00000000e+000</ScaleFactor>
#       <Offset>0.00000000e+000</Offset>
#       <!-- 1 = C, Chlorophyll -->
#       <!-- 2 = R, Rhodamine -->
#       <!-- 3 = F, Fluorescein -->
#       <!-- 4 = P, Phycocyanin -->
#       <!-- 5 = E, Phycoerythrin -->
#       <!-- 6 = U, CDOM -->
#       <!-- 7 = O, CrudeOil -->
#       <!-- 8 = B, OpticalBrightness -->
#       <!-- 9 = T, Turbidity -->
#       <!-- 10 = G, Refined Fuels -->
#       <MeasuredParameter>1</MeasuredParameter>
#     </Fluorometer>
#   </sensor>
# </Sensors>
# datcnv_date = May 26 2017 13:03:40, 7.21d [datcnv_vars = 11]
# datcnv_in = C:\Users\Steve Constant\Desktop\CHRP2017\CTD\raw\CHRP9.hex C:\Users\Steve Constant\Desktop\CHRP2017\CTD\raw\SBE19plusV2_63372017.xmlcon
# datcnv_skipover = 0
# datcnv_ox_hysteresis_correction = yes
# datcnv_ox_tau_correction = yes
# file_type = ascii
*END*
     -0.333    12.6327  12.326113     16.376   10.07554   94.84356 5.7648e+02     0.1990    95.1479     0.0404     0.0125  0.000e+00
     -0.332    12.6308  12.773981     16.971   10.07640   94.84763 5.7315e+02     0.1123    97.2304     0.0414     0.0144  0.000e+00
     -0.333    12.6291  13.639888     18.123   10.07817   94.86097 5.7084e+02     0.1904    95.3518     0.0413     0.0134  0.000e+00
     -0.333    12.6282  14.416249     19.155   10.08002   94.87678 5.6654e+02     0.2665    93.5539     0.0412     0.0156  0.000e+00
     -0.333    12.6269  14.177366     18.838   10.07773   94.85227 5.6267e+02     0.2614    93.6739     0.0380     0.0161  0.000e+00
     -0.333    12.6261  13.430873     17.846   10.07532   94.82771 5.5278e+02     0.2245    94.5425     0.0361     0.0168  0.000e+00
     -0.332    12.6261  12.863556     17.093   10.07802   94.85302 5.4353e+02     0.2101    94.8830     0.0378     0.0169  0.000e+00
     -0.332    12.6265  12.564975     16.696   10.07978   94.87036 5.3032e+02     0.2209    94.6280     0.0351     0.0166  0.000e+00
     -0.332    12.6267  12.146968     16.140   10.07878   94.86114 5.2045e+02     0.2324    94.3566     0.0332     0.0181  0.000e+00
     -0.334    12.6273  11.549831     15.346   10.08339   94.90564 5.1417e+02     0.2330    94.3418     0.0347     0.0167  0.000e+00
     -0.333    12.6282  11.251269     14.949   10.08059   94.88100 5.1309e+02     0.2270    94.4833     0.0345     0.0134  0.000e+00
     -0.333    12.6291  10.833290     14.394   10.08148   94.89122 5.1102e+02     0.2244    94.5441     0.0352     0.0173  0.000e+00
     -0.333    12.6300  10.475028     13.917   10.07940   94.87342 5.0691e+02     0.2260    94.5063     0.0360     0.0163  0.000e+00
     -0.334    12.6299  10.176482     13.521   10.08198   94.89751 4.9843e+02     0.2281    94.4570     0.0356     0.0141  0.000e+00
     -0.333    12.6285   9.907794     13.164   10.07940   94.87016 4.9234e+02     0.2281    94.4570     0.0359     0.0145  0.000e+00
     -0.333    12.6269   9.848087     13.085   10.07591   94.83386 4.8283e+02     0.2266    94.4915     0.0348     0.0169  0.000e+00
     -0.333    12.6257   9.639110     12.808   10.07794   94.85044 4.7751e+02     0.2268    94.4882     0.0361     0.0179  0.000e+00
     -0.333    12.6255   9.519696     12.650   10.07698   94.84082 4.7110e+02     0.2264    94.4981     0.0378     0.0153  0.000e+00
     -0.333    12.6260   9.430136     12.530   10.08189   94.88812 4.6289e+02     0.2268    94.4866     0.0388     0.0124  0.000e+00
     -0.333    12.6270   9.221164     12.252   10.08262   94.89692 4.5949e+02     0.2273    94.4751     0.0397     0.0123  0.000e+00
     -0.333    12.6274   9.101752     12.094   10.08578   94.92750 4.4746e+02     0.2266    94.4915     0.0421     0.0129  0.000e+00
     -0.334    12.6270   8.922636     11.856   10.08225   94.89347 4.1504e+02     0.2268    94.4866     0.0421     0.0131  0.000e+00
     -0.333    12.6266   8.653965     11.499   10.08485   94.91707 4.3528e+02     0.2266    94.4915     0.0414     0.0136  0.000e+00
     -0.334    12.6263   9.101752     12.094   10.08374   94.90601 4.3200e+02     0.2264    94.4981     0.0416     0.0118  0.000e+00
     -0.333    12.6253  10.654158     14.157   10.08506   94.91687 4.4793e+02     0.2265    94.4948     0.0410     0.0124  0.000e+00
     -0.333    12.6244  11.967825     15.903   10.08398   94.90514 4.5331e+02     0.2267    94.4899     0.0417     0.0143  0.000e+00
     -0.333    12.6237  11.758827     15.626   10.08082   94.87395 4.5587e+02     0.2266    94.4915     0.0408     0.0160  0.000e+00
     -0.333    12.6225  11.669257     15.507   10.08194   94.88189 4.8249e+02     0.2264    94.4981     0.0393     0.0186  0.000e+00
     -0.333    12.6218  11.669257     15.507   10.08068   94.86840 4.9537e+02     0.2262    94.5014     0.0356     0.0301  0.000e+00
     -0.333    12.6219  11.818541     15.706   10.08108   94.87233 5.0513e+02     0.2265    94.4948     0.0337     0.0311  0.000e+00
     -0.334    12.6219  12.027540     15.983   10.08384   94.89853 5.0807e+02     0.2265    94.4948     0.0319     0.0289  0.000e+00
     -0.334    12.6217  12.027540     15.984   10.08333   94.89321 5.1030e+02     0.2266    94.4915     0.0340     0.0221  0.000e+00
     -0.333    12.6192  11.699114     15.548   10.08732   94.92532 5.1390e+02     0.2265    94.4948     0.0356     0.0172  0.000e+00
     -0.333    12.6144  11.728971     15.590   10.08673   94.90967 5.1013e+02     0.2265    94.4948     0.0365     0.0160  0.000e+00
     -0.333    12.6082  12.057397     16.029   10.08796   94.90786 5.0611e+02     0.2266    94.4932     0.0363     0.0171  0.000e+00
     -0.334    12.6027  12.296256     16.349   10.08584   94.87643 4.9773e+02     0.2265    94.4948     0.0343     0.0193  0.000e+00
     -0.333    12.5999  12.176827     16.191   10.08869   94.89709 4.8923e+02     0.2267    94.4899     0.0343     0.0197  0.000e+00
     -0.333    12.6000  12.176827     16.191   10.08675   94.87911 4.8470e+02     0.2268    94.4882     0.0362     0.0241  0.000e+00
     -0.334    12.6013  12.236541     16.270   10.08272   94.84413 4.8232e+02     0.2269    94.4849     0.0359     0.0204  0.000e+00
     -0.333    12.6030  11.848398     15.753   10.08192   94.84001 4.8393e+02     0.2271    94.4816     0.0363     0.0163  0.000e+00
     -0.333    12.6045  11.758828     15.634   10.08635   94.88484 4.8368e+02     0.2262    94.5014     0.0388     0.0243  0.000e+00
     -0.333    12.6057  12.296256     16.348   10.08551   94.87974 4.8173e+02     0.2264    94.4981     0.0388     0.0236  0.000e+00
     -0.333    12.6069  12.475402     16.585   10.08668   94.89330 4.8368e+02     0.2267    94.4899     0.0365     0.0273  0.000e+00
     -0.333    12.6079  12.773982     16.982   10.08889   94.91642 4.8122e+02     0.2269    94.4849     0.0366     0.0008  0.000e+00
     -0.333    12.6090  13.102425     17.418   10.08163   94.85049 4.7785e+02     0.5098    88.0332     0.0365     0.0000  0.000e+00
     -0.333    12.6101  13.281578     17.656   10.08607   94.89469 4.7325e+02     0.7476    82.9535     0.0364     0.0000  0.000e+00
     -0.333    12.6112  13.102425     17.417   10.08896   94.92406 4.7167e+02     0.8076    81.7181     0.0364     0.0000  0.000e+00
     -0.332    12.6122  12.773982     16.980   10.08608   94.89904 4.6354e+02     0.8139    81.5898     0.0360     0.0000  0.000e+00
     -0.332    12.6130  12.684407     16.860   10.08577   94.89778 4.4706e+02     0.8180    81.5059     0.0348     0.0081  0.000e+00
     -0.333    12.6139  12.594833     16.741   10.08729   94.91404 4.4393e+02     0.8198    81.4697     0.0359     0.0185  0.000e+00
     -0.333    12.6145  12.176826     16.185   10.08285   94.87347 4.4082e+02     0.8246    81.3710     0.0366     0.1946  0.000e+00
     -0.333    12.6154  12.326113     16.383   10.08728   94.91705 4.2890e+02     0.8255    81.3529     0.0383     0.1554  0.000e+00
     -0.332    12.6160  12.594833     16.740   10.08663   94.91245 4.1613e+02     0.8350    81.1604     0.0408     0.0000  0.000e+00
     -0.333    12.6167  12.117111     16.105   10.08655   94.91290 4.0716e+02     1.0311    77.2766     0.0404     0.0000  0.000e+00
     -0.332    12.6174  11.967826     15.906   10.08652   94.91416 3.9811e+02     1.4301    69.9399     0.0335     0.0000  0.000e+00
     -0.332    12.6183  11.848398     15.747   10.08369   94.88921 3.9581e+02     1.9500    61.4155     0.0324     0.0000  0.000e+00
     -0.332    12.6187  11.340838     15.072   10.08277   94.88139 3.8960e+02     1.9124    61.9962     0.0336     0.0000  0.000e+00
     -0.332    12.6192  11.281125     14.993   10.08666   94.91900 3.8673e+02     1.8030    63.7152     0.0359     0.0000  0.000e+00
     -0.323    12.6189  11.161702     14.834   10.08414   94.89469 3.9069e+02     1.6070    66.9147     0.0519     0.0000  0.000e+00
     -0.311    12.6500  11.101989     14.742   10.08020   94.92391 3.8382e+02     1.4879    68.9365     0.0813     0.6748  0.000e+00
     -0.301    12.7022  11.669254     15.474   10.06807   94.92115 3.8221e+02     1.4267    70.0008     0.1125     0.9225  0.000e+00
     -0.254    12.6868  69.254369     91.874   10.06899   94.91664 3.8033e+02     1.3971    70.5206     0.1226     0.6888  0.000e+00
     -0.159    12.5220 199.701942    266.092   10.09684   94.87485 3.7946e+02     1.9673    61.1507     0.1320     0.4550  0.000e+00
     -0.058    12.1617 206.302034    277.552   10.17863   94.87088 3.7966e+02     8.1609    12.9999     0.1466     0.2899  0.000e+00
      0.006    11.7565 203.680191    277.046   10.27385   94.87919 3.8093e+02    13.2783     3.6168     0.1495     0.1852  0.000e+00
      0.033    11.3902 202.746196    278.552   10.35979   94.87362 3.8221e+02    15.8096     1.9208     0.1469     0.1231  0.000e+00
      0.031    11.1491 202.595675    280.202   10.42094   94.90538 3.8107e+02    15.5929     2.0278     0.1413     0.0856  0.000e+00
      0.007    11.0095 202.294410    280.870   10.47076   95.05204 3.7292e+02    13.1494     3.7353     0.1376     0.0613  0.000e+00
     -0.003    10.9290 202.023246    281.122   10.50637   95.19785 3.6901e+02    15.4621     2.0952     0.1395     0.0441  0.000e+00
      0.014    10.8990 202.806791    282.448   10.52878   95.33501 3.7083e+02    12.1097     4.8440     0.1357     0.0340  0.000e+00
      0.059    10.9029 202.445159    281.914   10.53697   95.41747 3.7463e+02     9.9683     8.2738     0.1331     0.0310  0.000e+00
      0.113    10.9128 203.982128    283.976   10.52785   95.35747 3.7621e+02     1.8605    62.8055     0.1278     0.0269  0.000e+00
      0.132    10.9246 204.524609    284.638   10.52284   95.33826 3.7561e+02     1.2515    73.1345     0.1357     0.0246  0.000e+00
      0.123    10.9633 204.223199    283.912   10.51380   95.34170 3.7787e+02     2.6310    51.8021     0.1402     0.0254  0.000e+00
      0.090    11.0485 204.313557    283.366   10.50539   95.45330 3.7760e+02     9.6066     9.0568     0.1382     0.0241  0.000e+00
      0.036    11.1107 204.343653    282.919   10.50978   95.63064 3.7773e+02    14.6646     2.5575     0.1357     0.0230  0.000e+00
     -0.005    11.1449 204.313491    282.610   10.52006   95.79961 3.8006e+02    13.9010     3.0954     0.1340     0.0221  0.000e+00
     -0.018    11.1505 204.162796    282.358   10.53999   95.99347 3.8483e+02    19.5560     0.7529     0.1304     0.0217  0.000e+00
     -0.002    11.1271 203.801157    282.041   10.54640   95.99978 3.8843e+02    14.6930     2.5394     0.1307     0.0230  0.000e+00
      0.023    11.0952 204.283386    282.958   10.54290   95.89747 3.9193e+02    13.0314     3.8471     0.1317     0.0230  0.000e+00
      0.050    11.0841 204.645057    283.546   10.52485   95.70885 3.9678e+02    12.0264     4.9460     0.1377     0.0217  0.000e+00
      0.067    11.0790 204.283398    283.085   10.49869   95.45978 4.0325e+02    13.5570     3.3734     0.1364     0.0207  0.000e+00
      0.069    11.1220 204.223093    282.665   10.46619   95.25862 4.0588e+02    16.7646     1.5129     0.1344     0.0207  0.000e+00
      0.052    11.1729 204.373750    282.475   10.43609   95.09634 4.0738e+02    12.2578     4.6680     0.1365     0.0203  0.000e+00
      0.041    11.2048 204.283313    282.101   10.42857   95.09779 4.0932e+02     9.3765     9.5931     0.1427     0.0288  0.000e+00
      0.058    11.2248 204.433993    282.153   10.43007   95.15516 4.1228e+02    11.5480     5.5744     0.1399     0.0297  0.000e+00
      0.071    11.2399 204.705231    282.410   10.44200   95.29727 4.1504e+02    16.3635     1.6724     0.1376     0.0263  0.000e+00
      0.061    11.2485 204.644947    282.259   10.45156   95.40356 4.1628e+02    16.6616     1.5524     0.1340     0.0246  0.000e+00
      0.036    11.2644 204.584659    282.053   10.46091   95.52370 4.1650e+02    15.2960     2.1840     0.1337     0.0221  0.000e+00
     -0.007    11.2934 204.795611    282.118   10.46310   95.60755 4.1555e+02    14.6801     2.5476     0.1329     0.0226  0.000e+00
     -0.038    11.3186 204.705177    281.798   10.46254   95.65778 4.1643e+02    12.1233     4.8276     0.1344     0.0230  0.000e+00
     -0.007    11.3278 204.524339    281.477   10.45535   95.61226 4.1322e+02    11.3928     5.7948     0.1382     0.0233  0.000e+00
      0.057    11.3114 204.464074    281.522   10.44176   95.45192 4.1047e+02    13.7427     3.2204     0.1685     0.0227  0.000e+00
      0.122    11.2707 204.855907    282.378   10.43372   95.28930 4.0982e+02     3.1118    45.9344     0.1606     0.0211  0.000e+00
      0.163    11.2407 204.765510    282.487   10.42618   95.15475 4.0802e+02     1.2976    72.2955     0.1444     0.0194  0.000e+00
      0.171    11.2427 204.705231    282.388   10.42301   95.13013 4.0460e+02     1.0049    77.7849     0.1404     0.0198  0.000e+00
      0.146    11.2975 204.795611    282.086   10.41981   95.22096 4.0624e+02     1.0385    77.1335     0.1367     0.0200  0.000e+00
      0.087    11.3405 204.795581    281.752   10.43878   95.48870 4.0445e+02     4.4873    32.5688     0.1346     0.0187  0.000e+00
      0.013    11.3606 204.705150    281.472   10.47267   95.84294 4.0000e+02    11.3063     5.9215     0.1340     0.0182  0.000e+00
     -0.013    11.3266 203.801025    280.491   10.51445   96.14988 3.9972e+02    13.8756     3.1151     0.1344     0.0194  0.000e+00
      0.042    11.2283 202.595623    279.589   10.55867   96.33550 4.0169e+02    15.6782     1.9850     0.1336     0.0193  0.000e+00
      0.111    11.1381 202.414869    280.037   10.56088   96.15544 4.0659e+02     1.8400    63.1280     0.1380     0.0245  0.000e+00
      0.160    11.0799 204.072432    282.786   10.55386   95.96310 4.0445e+02     1.0470    76.9706     0.1334     0.0281  0.000e+00
      0.179    11.0516 204.403971    283.468   10.52477   95.63622 4.0240e+02     0.9227    79.4003     0.1292     0.0272  0.000e+00
      0.173    11.1101 204.313517    282.883   10.48139   95.37084 4.0374e+02     0.9923    78.0300     0.1275     0.0249  0.000e+00
      0.144    11.2049 204.162763    281.934   10.44839   95.27859 4.0752e+02     0.9817    78.2373     0.1355     0.0232  0.000e+00
      0.100    11.2610 203.801070    280.998   10.43449   95.27481 4.0953e+02     4.9977    28.6669     0.1382     0.0224  0.000e+00
      0.062    11.2860 203.680503    280.639   10.43835   95.36472 4.1083e+02    10.3110     7.5944     0.1363     0.0217  0.000e+00
      0.058    11.2711 203.288730    280.214   10.46102   95.53901 4.1134e+02    13.3369     3.5642     0.1306     0.0215  0.000e+00
      0.097    11.1947 202.294290    279.432   10.48332   95.57384 4.1141e+02     9.4611     9.3924     0.1326     0.0215  0.000e+00
      0.160    11.1142 201.872452    279.471   10.44167   95.01753 4.1628e+02     1.5475    67.9182     0.1435     0.0262  0.000e+00
      0.219    11.0487 201.812227    279.896   10.35481   94.08461 4.1584e+02     0.9976    77.9264     0.1424     0.0253  0.000e+00
      0.260    11.0046 202.023201    280.531   10.28366   93.34306 2.4451e+02     0.8962    79.9283     0.1373     0.0233  0.000e+00
      0.290    10.9838 202.414974    281.238   10.20558   92.58977 1.8438e+02     0.8638    80.5781     0.1394     0.0220  0.000e+00
      0.297    10.9677 203.349209    282.662   10.12379   91.81407 3.9748e+02     0.8617    80.6192     0.1371     0.0220  0.000e+00
      0.276    10.9523 202.806761    282.029   10.04760   91.09037 4.1402e+02     0.8825    80.2014     0.1315     0.0237  0.000e+00
      0.265    10.9359 201.631494    280.523    9.96738   90.32836 4.1562e+02     0.8827    80.1981     0.1285     0.0233  0.000e+00
      0.292    10.9169 200.998693    279.791    9.89421   89.62551 4.0982e+02     0.8733    80.3873     0.1259     0.0220  0.000e+00
      0.356    10.8952 200.697376    279.540    9.83295   89.02569 2.1462e+02     0.8409    81.0404     0.1253     0.0223  0.000e+00
      0.444    10.8729 200.727525    279.755    9.67963   87.59241 1.7596e+02     0.8206    81.4532     0.1299     0.0204  0.000e+00
      0.527    10.8582 201.330208    280.711    9.53885   86.28916 1.5779e+02     0.8371    81.1177     0.1389     0.0207  0.000e+00
      0.589    10.8498 202.384932    282.247    9.43818   85.36235 1.4824e+02     0.8127    81.6145     0.1383     0.0195  0.000e+00
      0.633    10.8449 202.565751    282.538    9.40127   85.01900 1.4275e+02     0.8098    81.6720     0.1330     0.0190  0.000e+00
      0.666    10.8691 201.932893    281.466    9.42732   85.30202 1.4497e+02     0.7958    81.9583     0.1320     0.0191  0.000e+00
      0.687    10.9039 201.510986    280.605    9.50037   86.03234 1.4827e+02     0.8094    81.6819     0.1292     0.0198  0.000e+00
      0.702    10.9096 201.390446    280.392    9.60507   86.99190 1.4484e+02     0.8076    81.7181     0.1317     0.0208  0.000e+00
      0.718    10.8927 201.510994    280.693    9.71575   87.95988 1.5164e+02     0.7993    81.8875     0.1302     0.0209  0.000e+00
      0.727    10.8750 201.872620    281.335    9.81939   88.86176 1.4811e+02     0.8227    81.4105     0.1326     0.0209  0.000e+00
      0.735    10.8637 201.390476    280.752    9.87690   89.35864 1.3487e+02     0.8346    81.1670     0.1335     0.0198  0.000e+00
      0.762    10.8464 200.878215    280.173    9.87697   89.32324 1.3567e+02     0.8396    81.0667     0.1350     0.0203  0.000e+00
      0.798    10.8241 200.607031    279.969    9.83460   88.89402 1.4497e+02     0.8215    81.4335     0.1354     0.0201  0.000e+00
      0.823    10.8097 200.757707    280.292    9.76513   88.23667 1.3620e+02     0.8234    81.3957     0.1324     0.0209  0.000e+00
      0.829    10.8070 201.390515    281.197    9.68080   87.46931 1.3238e+02     0.8420    81.0173     0.1292     0.0197  0.000e+00
      0.812    10.8105 201.993204    282.010    9.59261   86.67984 1.3762e+02     0.8504    80.8479     0.1288     0.0204  0.000e+00
      0.778    10.8044 201.872667    281.890    9.50777   85.90105 1.4484e+02     0.8480    80.8972     0.1299     0.0201  0.000e+00
      0.735    10.7964 201.059048    280.817    9.42006   85.09251 1.3901e+02     0.8410    81.0387     0.1309     0.0200  0.000e+00
      0.706    10.7901 200.456387    280.024    9.31743   84.15299 1.4785e+02     0.8408    81.0420     0.1312     0.0194  0.000e+00
      0.708    10.7817 200.275597    279.838    9.24754   83.50531 1.3798e+02     0.8342    81.1769     0.1288     0.0194  0.000e+00
      0.736    10.7795 200.215334    279.770    9.19315   83.01000 1.4093e+02     0.8485    80.8874     0.1427     0.0204  0.000e+00
      0.771    10.7841 200.456392    280.071    9.15080   82.63641 1.4589e+02     0.8489    80.8775     0.1638     0.0196  0.000e+00
      0.789    10.7925 201.450792    281.395    9.13040   82.46860 1.4612e+02     0.8263    81.3365     0.1559     0.0198  0.000e+00
      0.794    10.7991 201.812402    281.847    9.11663   82.35701 1.3950e+02     0.8181    81.5042     0.1525     0.0189  0.000e+00
      0.782    10.8111 201.963068    281.964    9.09782   82.20994 1.3277e+02     0.8434    80.9894     0.1484     0.0194  0.000e+00
      0.755    10.8465 201.511025    281.055    9.07207   82.04440 1.4426e+02     0.8366    81.1275     0.1424     0.0190  0.000e+00
      0.740    10.8807 201.028859    280.115    9.03754   81.79693 1.4905e+02     0.8298    81.2657     0.1414     0.0192  0.000e+00
      0.735    10.8862 200.757655    279.694    8.99783   81.44773 1.4269e+02     0.8392    81.0749     0.1405     0.0203  0.000e+00
      0.744    10.8703 200.576867    279.566    8.97051   81.17042 1.4375e+02     0.8181    81.5026     0.1337     0.0208  0.000e+00
      0.757    10.8439 200.576885    279.772    8.97256   81.13940 1.4461e+02     0.8261    81.3414     0.1427     0.0197  0.000e+00
      0.765    10.8255 201.119297    280.673    8.99601   81.31691 1.5048e+02     0.8060    81.7493     0.1646     0.0196  0.000e+00
      0.760    10.8197 201.571311    281.349    9.02501   81.56829 1.4939e+02     0.7945    81.9862     0.1559     0.0191  0.000e+00
      0.747    10.8087 201.631587    281.519    9.06258   81.88696 1.4147e+02     0.7964    81.9467     0.1416     0.0199  0.000e+00
      0.735    10.8062 201.239844    280.992    9.08772   82.10917 1.3883e+02     0.8142    81.5832     0.1384     0.0194  0.000e+00
      0.727    10.8125 200.757703    280.269    9.08959   82.13798 1.4297e+02     0.8236    81.3924     0.1404     0.0199  0.000e+00
      0.725    10.8082 200.456376    279.883    9.08600   82.09712 1.4553e+02     0.8117    81.6342     0.1495     0.0214  0.000e+00
      0.727    10.7949 200.335854    279.818    9.06987   81.92602 1.4770e+02     0.8131    81.6062     0.1474     0.0209  0.000e+00
      0.728    10.7791 200.456395    280.110    9.06387   81.84188 1.5641e+02     0.8056    81.7592     0.1474     0.0194  0.000e+00
      0.724    10.7752 200.878260    280.731    9.07029   81.89257 1.5893e+02     0.7955    81.9648     0.1409     0.0195  0.000e+00
      0.721    10.7757 200.727594    280.516    9.07205   81.90949 1.4512e+02     0.7980    81.9138     0.1382     0.0197  0.000e+00
      0.730    10.7703 200.396135    280.095    9.08485   82.01456 1.3601e+02     0.8018    81.8365     0.1347     0.0200  0.000e+00
      0.755    10.7597 200.155083    279.841    9.08079   81.95760 1.4182e+02     0.8171    81.5240     0.1298     0.0210  0.000e+00
      0.784    10.7502 200.185222    279.957    9.07826   81.91674 1.3977e+02     0.8293    81.2756     0.1269     0.0211  0.000e+00
      0.789    10.7471 200.757747    280.783    9.06631   81.80312 1.4528e+02     0.7957    81.9616     0.1247     0.0207  0.000e+00
      0.777    10.7516 201.300148    281.506    9.07348   81.87670 1.5024e+02     0.7856    82.1688     0.1276     0.0226  0.000e+00
      0.751    10.7514 201.571356    281.887    9.06520   81.80161 1.4617e+02     0.7991    81.8908     0.1373     0.0219  0.000e+00
      0.714    10.7657 201.300138    281.395    9.05212   81.71062 1.4373e+02     0.7954    81.9665     0.1398     0.0217  0.000e+00
      0.683    10.7848 200.817987    280.571    9.03629   81.60387 1.5444e+02     0.8191    81.4829     0.1379     0.0257  0.000e+00
      0.689    10.8008 200.365982    279.815    9.01323   81.42558 1.4182e+02     0.8047    81.7773     0.1350     0.0340  0.000e+00
      0.721    10.7887 200.124931    279.572    8.97628   81.06897 1.4479e+02     0.8024    81.8234     0.1389     0.0306  0.000e+00
      0.745    10.7670 200.305740    279.994    8.93473   80.65313 1.4926e+02     0.8029    81.8135     0.1429     0.0258  0.000e+00
      0.751    10.7579 201.119341    281.204    8.89950   80.31837 1.5479e+02     0.7987    81.9007     0.1389     0.0238  0.000e+00
      0.744    10.7510 201.511087    281.806    8.85609   79.91387 1.5271e+02     0.8040    81.7921     0.1346     0.0221  0.000e+00
      0.726    10.7646 201.571347    281.782    8.80693   79.49548 1.4929e+02     0.7873    82.1343     0.1353     0.0211  0.000e+00
      0.710    10.8109 200.998771    280.618    8.75551   79.11623 1.4474e+02     0.7969    81.9369     0.1492     0.0200  0.000e+00
      0.721    10.8439 200.456353    279.604    8.72311   78.88344 1.3910e+02     0.8178    81.5092     0.1761     0.0186  0.000e+00
      0.756    10.8405 200.305692    279.420    8.71719   78.82373 1.4929e+02     0.7974    81.9254     0.1714     0.0198  0.000e+00
      0.786    10.8140 200.576905    280.006    8.74886   79.06155 1.5003e+02     0.7951    81.9731     0.1589     0.0214  0.000e+00
      0.794    10.7972 201.239851    281.063    8.80586   79.54591 1.4137e+02     0.8008    81.8563     0.1784     0.0215  0.000e+00
      0.779    10.7860 201.511065    281.530    8.86950   80.10000 1.4317e+02     0.7917    82.0422     0.1874     0.0202  0.000e+00
      0.743    10.8224 201.450772    281.160    8.92999   80.71442 1.4770e+02     0.8076    81.7181     0.1793     0.0193  0.000e+00
      0.698    10.8795 200.938459    279.998    9.01133   81.55730 1.5034e+02     0.8011    81.8513     0.1749     0.0198  0.000e+00
      0.672    10.9099 200.637106    279.342    9.10867   82.49637 1.5349e+02     0.8045    81.7806     0.1698     0.0208  0.000e+00
      0.689    10.8983 200.245388    278.886    9.21949   83.47758 1.5296e+02     0.7925    82.0257     0.1575     0.0211  0.000e+00
      0.745    10.8549 200.004359    278.887    9.31711   84.27653 1.3818e+02     0.8003    81.8661     0.1601     0.0234  0.000e+00
      0.794    10.8149 200.727569    280.209    9.38831   84.84207 1.5013e+02     0.7905    82.0668     0.1500     0.0244  0.000e+00
      0.816    10.7939 201.300121    281.173    9.42298   85.11410 1.5550e+02     0.8126    81.6161     0.1433     0.0237  0.000e+00
      0.809    10.7917 201.239855    281.106    9.42084   85.09020 1.4350e+02     0.8124    81.6194     0.1398     0.0223  0.000e+00
      0.768    10.8453 201.119284    280.517    9.38808   84.89993 1.4850e+02     0.8607    80.6406     0.1379     0.0218  0.000e+00
      0.707    10.9015 200.787778    279.616    9.33740   84.55155 1.5550e+02     0.8059    81.7526     0.1495     0.0201  0.000e+00
      0.655    10.9359 200.757621    279.307    9.27582   84.06084 1.4968e+02     0.8246    81.3710     0.1505     0.0191  0.000e+00
      0.662    10.9389 200.456290    278.864    9.24230   83.76281 1.4566e+02     0.8345    81.1703     0.1583     0.0197  0.000e+00
      0.722    10.8924 200.004335    278.596    9.24490   83.69602 1.4762e+02     0.8014    81.8448     0.1535     0.0194  0.000e+00
      0.790    10.8397 199.944106    278.922    9.28470   83.95373 1.4535e+02     0.7816    82.2511     0.1451     0.0218  0.000e+00
      0.826    10.8061 200.637176    280.151    9.32842   84.28362 1.5285e+02     0.8003    81.8661     0.1376     0.0317  0.000e+00
      0.831    10.7906 200.998786    280.778    9.38977   84.80738 1.4921e+02     0.8227    81.4105     0.1326     0.0337  0.000e+00
      0.805    10.7896 201.028920    280.828    9.44964   85.34627 1.4137e+02     0.8212    81.4401     0.1296     0.0311  0.000e+00
      0.749    10.8333 200.938490    280.359    9.49630   85.85454 1.4666e+02     0.8302    81.2575     0.1285     0.0269  0.000e+00
      0.686    10.8758 200.606995    279.565    9.53426   86.28272 1.5000e+02     0.8031    81.8102     0.1276     0.0246  0.000e+00
      0.665    10.8994 200.456315    279.171    9.57778   86.72391 1.6008e+02     0.7998    81.8777     0.1292     0.0234  0.000e+00
      0.707    10.8937 200.305657    279.006    9.60864   86.99179 1.4892e+02     0.8158    81.5503     0.1541     0.0211  0.000e+00
      0.775    10.8532 200.064625    278.985    9.64792   87.26541 1.4767e+02     0.8013    81.8464     0.1545     0.0203  0.000e+00
      0.828    10.8153 200.365975    279.701    9.66392   87.33333 1.4765e+02     0.8015    81.8431     0.1899     0.0192  0.000e+00
      0.853    10.7974 200.817982    280.472    9.64715   87.14566 1.4597e+02     0.7931    82.0142     0.1779     0.0175  0.000e+00
      0.848    10.7846 200.938523    280.740    9.61508   86.83038 1.4322e+02     0.7902    82.0734     0.1750     0.0175  0.000e+00
      0.811    10.8115 200.878238    280.446    9.56120   86.39763 1.4222e+02     0.7766    82.3531     0.2316     0.0181  0.000e+00
      0.755    10.8540 200.667277    279.819    9.50339   85.95996 1.4107e+02     0.7889    82.1014     0.2078     0.0185  0.000e+00
      0.711    10.8834 200.396061    279.212    9.45927   85.61903 1.4682e+02     0.7923    82.0306     0.1857     0.0203  0.000e+00
      0.701    10.8957 200.456318    279.200    9.42119   85.29877 1.6203e+02     0.8173    81.5207     0.1672     0.0225  0.000e+00
      0.728    10.8838 200.335796    279.125    9.38740   84.96920 1.5619e+02     0.8089    81.6918     0.1552     0.0225  0.000e+00
      0.773    10.8502 200.335819    279.387    9.37231   84.76665 1.4088e+02     0.8344    81.1720     0.1444     0.0227  0.000e+00
      0.813    10.8225 200.607033    279.981    9.35086   84.51846 1.4459e+02     0.7974    81.9270     0.1369     0.0210  0.000e+00
      0.835    10.8144 200.817970    280.339    9.31694   84.19615 1.4275e+02     0.7978    81.9188     0.1324     0.0198  0.000e+00
      0.831    10.8085 200.878241    280.469    9.26843   83.74616 1.4275e+02     0.7910    82.0570     0.1354     0.0198  0.000e+00
      0.803    10.8285 200.938494    280.396    9.21700   83.32027 1.4835e+02     0.7909    82.0603     0.1378     0.0203  0.000e+00
      0.759    10.8663 200.878201    280.017    9.14239   82.71831 1.5542e+02     0.8196    81.4730     0.1394     0.0211  0.000e+00
      0.720    10.8955 200.697382    279.538    9.08700   82.27260 1.3670e+02     0.8113    81.6424     0.1374     0.0208  0.000e+00
      0.711    10.9084 200.516576    279.186    9.06106   82.06223 1.3661e+02     0.8097    81.6753     0.1416     0.0194  0.000e+00
      0.737    10.9056 200.396047    279.039    9.05877   82.03626 1.4997e+02     0.7943    81.9895     0.1448     0.0194  0.000e+00
      0.775    10.8829 200.305665    279.090    9.08848   82.26182 1.5466e+02     0.7875    82.1293     0.1454     0.0193  0.000e+00
      0.803    10.8457 200.456353    279.590    9.14072   82.66340 1.4237e+02     0.8011    81.8513     0.1423     0.0188  0.000e+00
      0.812    10.8268 200.727562    280.116    9.19009   83.07356 1.3954e+02     0.7919    82.0389     0.1344     0.0195  0.000e+00
      0.799    10.8141 200.878236    280.425    9.22610   83.37460 1.5322e+02     0.7857    82.1655     0.1363     0.0203  0.000e+00
      0.766    10.8163 200.878234    280.408    9.23624   83.47053 1.5726e+02     0.7934    82.0076     0.1341     0.0201  0.000e+00
      0.732    10.8456 200.757681    280.011    9.22289   83.40644 1.4850e+02     0.8152    81.5618     0.1415     0.0204  0.000e+00
      0.733    10.8683 200.516602    279.498    9.17904   83.05355 1.3632e+02     0.8078    81.7132     0.1404     0.0211  0.000e+00
      0.779    10.8673 200.305675    279.211    9.12682   82.57900 1.3881e+02     0.7996    81.8809     0.1409     0.0221  0.000e+00
      0.824    10.8460 200.185160    279.209    9.08433   82.15401 1.5501e+02     0.7970    81.9336     0.1511     0.0232  0.000e+00
      0.837    10.8139 200.365976    279.712    9.05465   81.82464 1.5921e+02     0.7940    81.9961     0.1434     0.0224  0.000e+00
      0.824    10.7955 200.697449    280.319    9.04943   81.74274 1.5690e+02     0.8157    81.5519     0.1354     0.0238  0.000e+00
      0.790    10.7812 200.878258    280.683    9.04351   81.66226 1.4259e+02     0.8008    81.8563     0.1331     0.0228  0.000e+00
      0.725    10.8076 200.878239    280.476    9.04041   81.68425 1.4966e+02     0.8127    81.6145     0.1327     0.0327  0.000e+00
      0.671    10.8501 200.516613    279.640    9.03525   81.71792 1.5704e+02     0.7913    82.0520     0.1312     0.0315  0.000e+00
      0.690    10.8732 200.275537    279.124    9.04604   81.85933 1.4929e+02     0.7955    81.9648     0.1328     0.0273  0.000e+00
      0.761    10.8626 199.823563    278.576    9.08196   82.16402 1.4102e+02     0.7853    82.1738     0.1359     0.0236  0.000e+00
      0.817    10.8168 199.642803    278.680    9.13393   82.54652 1.5531e+02     0.7912    82.0537     0.1408     0.0221  0.000e+00
      0.835    10.7760 199.944148    279.419    9.18994   82.97408 1.5352e+02     0.7876    82.1277     0.1364     0.0214  0.000e+00
      0.829    10.7542 200.456413    280.305    9.23354   83.32569 1.3886e+02     0.8077    81.7164     0.1326     0.0203  0.000e+00
      0.799    10.7382 200.727620    280.810    9.28786   83.78494 1.4157e+02     0.8216    81.4319     0.1497     0.0194  0.000e+00
      0.747    10.7512 200.697477    280.666    9.32307   84.12780 1.4535e+02     0.8124    81.6194     0.1714     0.0197  0.000e+00
      0.708    10.7881 200.305725    279.829    9.35986   84.53222 1.4879e+02     0.8019    81.8332     0.1723     0.0204  0.000e+00
      0.713    10.8072 200.064654    279.343    9.38691   84.81394 1.5433e+02     0.7906    82.0652     0.1598     0.0202  0.000e+00
      0.751    10.8070 199.944127    279.177    9.41701   85.08548 1.4038e+02     0.8238    81.3874     0.1465     0.0207  0.000e+00
      0.787    10.7899 199.793479    279.100    9.44127   85.27075 1.4628e+02     0.8069    81.7329     0.1360     0.0207  0.000e+00
      0.804    10.7618 199.883893    279.446    9.49245   85.67703 1.4958e+02     0.8227    81.4105     0.1302     0.0209  0.000e+00
      0.805    10.7453 200.366020    280.249    9.52017   85.89457 1.4754e+02     0.8008    81.8563     0.1308     0.0202  0.000e+00
      0.786    10.7336 200.516691    280.552    9.53804   86.03234 1.4551e+02     0.7890    82.0981     0.1279     0.0201  0.000e+00
      0.756    10.7278 200.607093    280.723    9.52373   85.89188 1.3560e+02     0.7872    82.1359     0.1301     0.0198  0.000e+00
      0.732    10.7421 200.516685    280.485    9.47785   85.50639 1.4317e+02     0.7962    81.9517     0.1302     0.0192  0.000e+00
      0.730    10.7637 200.245477    279.936    9.40661   84.90615 1.5218e+02     0.7938    81.9994     0.1321     0.0201  0.000e+00
      0.745    10.7737 200.124941    279.690    9.31142   84.06642 1.4997e+02     0.7956    81.9632     0.1354     0.0201  0.000e+00
      0.763    10.7702 200.034547    279.591    9.21115   83.15442 1.4332e+02     0.7805    82.2725     0.1328     0.0194  0.000e+00
      0.774    10.7669 200.124946    279.743    9.11157   82.24920 1.4363e+02     0.7885    82.1080     0.1263     0.0205  0.000e+00
      0.778    10.7583 200.245481    279.978    9.03585   81.54939 1.3903e+02     0.7901    82.0751     0.1498     0.0199  0.000e+00
      0.777    10.7543 200.396147    280.221    8.97687   81.00962 1.4065e+02     0.8107    81.6539     0.1485     0.0201  0.000e+00
      0.773    10.7503 200.516680    280.420    8.94950   80.75528 1.4530e+02     0.7987    81.9007     0.1389     0.0192  0.000e+00
      0.771    10.7452 200.456418    280.376    8.92336   80.50970 1.3883e+02     0.7847    82.1869     0.1324     0.0188  0.000e+00
      0.773    10.7408 200.456421    280.410    8.90099   80.29970 1.4102e+02     0.7771    82.3432     0.1296     0.0203  0.000e+00
      0.777    10.7372 200.516689    280.523    8.86596   79.97694 1.4080e+02     0.7838    82.2050     0.1353     0.0211  0.000e+00
      0.777    10.7351 200.576956    280.624    8.82401   79.59470 1.4177e+02     0.7959    81.9566     0.1524     0.0209  0.000e+00
      0.769    10.7341 200.667355    280.758    8.76590   79.06878 1.4418e+02     0.7898    82.0816     0.2002     0.0208  0.000e+00
      0.757    10.7331 200.576957    280.640    8.70148   78.48586 1.4461e+02     0.7857    82.1655     0.1828     0.0247  0.000e+00
      0.746    10.7351 200.667354    280.750    8.63458   77.88617 1.4594e+02     0.7881    82.1162     0.1700     0.0304  0.000e+00
      0.742    10.7417 200.637217    280.656    8.56376   77.25908 1.4145e+02     0.7917    82.0422     0.1604     0.0291  0.000e+00
      0.746    10.7474 200.516682    280.443    8.50095   76.70252 1.3857e+02     0.7988    81.8974     0.1504     0.0267  0.000e+00
      0.758    10.7487 200.396150    280.264    8.43763   76.13352 1.4788e+02     0.7785    82.3152     0.1919     0.0256  0.000e+00
      0.772    10.7467 200.305754    280.153    8.38894   75.69069 1.4710e+02     0.7873    82.1343     0.1993     0.0234  0.000e+00
      0.780    10.7436 200.335888    280.220    8.33864   75.23139 1.4050e+02     0.7992    81.8892     0.1892     0.0218  0.000e+00
      0.784    10.7398 200.426289    280.376    8.29038   74.78939 1.4093e+02     0.7869    82.1425     0.1730     0.0208  0.000e+00
      0.786    10.7390 200.456422    280.424    8.25609   74.47877 1.4347e+02     0.7877    82.1261     0.1607     0.0201  0.000e+00
      0.785    10.7418 200.516686    280.487    8.22363   74.19063 1.4548e+02     0.7907    82.0635     0.1502     0.0193  0.000e+00
      0.791    10.7438 200.516685    280.471    8.19669   73.95121 1.4312e+02     0.7921    82.0356     0.1867     0.0190  0.000e+00
      0.795    10.7438 200.396154    280.302    8.17108   73.72004 1.3186e+02     0.7866    82.1474     0.1883     0.0188  0.000e+00
      0.799    10.7406 200.426289    280.370    8.14559   73.48450 1.4778e+02     0.7881    82.1178     0.1822     0.0185  0.000e+00
      0.796    10.7344 200.456425    280.461    8.11937   73.23745 1.4966e+02     0.7734    82.4189     0.1613     0.0198  0.000e+00
      0.786    10.7309 200.607092    280.699    8.08757   72.94482 1.4335e+02     0.7969    81.9369     0.1459     0.0204  0.000e+00
      0.768    10.7324 200.697490    280.814    8.05986   72.69731 1.2877e+02     0.8021    81.8300     0.1427     0.0214  0.000e+00
      0.751    10.7333 200.727622    280.849    8.02587   72.39239 1.4710e+02     0.8219    81.4269     0.1442     0.0208  0.000e+00
      0.736    10.7345 200.697488    280.797    7.99167   72.08586 1.6272e+02     0.7962    81.9517     0.1376     0.0200  0.000e+00
      0.729    10.7449 200.607082    280.589    7.96866   71.89554 1.4778e+02     0.7933    82.0109     0.1321     0.0194  0.000e+00
      0.734    10.7544 200.516677    280.388    7.94470   71.69522 1.3273e+02     0.7886    82.1063     0.1337     0.0198  0.000e+00
      0.750    10.7556 200.305747    280.084    7.92928   71.55806 1.4224e+02     0.7912    82.0537     0.1366     0.0203  0.000e+00
      0.767    10.7486 200.215355    280.012    7.91549   71.42206 1.5304e+02     0.7938    82.0010     0.1415     0.0259  0.000e+00
      0.775    10.7377 200.245494    280.140    7.90795   71.33583 1.5220e+02     0.7891    82.0964     0.1427     0.0282  0.000e+00
      0.769    10.7334 200.576957    280.638    7.89638   71.22446 1.4358e+02     0.7867    82.1458     0.1441     0.0262  0.000e+00
      0.755    10.7295 200.667358    280.795    7.89408   71.19723 1.3937e+02     0.8085    81.6984     0.1407     0.0234  0.000e+00
      0.745    10.7281 200.637226    280.763    7.88764   71.13695 1.3704e+02     0.7897    82.0849     0.1345     0.0217  0.000e+00
      0.749    10.7451 200.426285    280.335    7.88080   71.10322 1.3813e+02     0.7833    82.2149     0.1897     0.0210  0.000e+00
      0.768    10.7521 200.185220    279.943    7.89268   71.22183 1.4446e+02     0.8299    81.2624     0.1945     0.0198  0.000e+00
      0.783    10.7477 200.124959    279.893    7.90942   71.36571 1.4502e+02     0.8015    81.8431     0.1795     0.0204  0.000e+00
      0.789    10.7416 200.426288    280.362    7.93101   71.55036 1.4502e+02     0.7940    81.9961     0.1596     0.0204  0.000e+00
      0.782    10.7399 200.516687    280.502    7.94419   71.66657 1.4209e+02     0.7940    81.9961     0.1585     0.0217  0.000e+00
      0.759    10.7336 200.667356    280.763    7.96060   71.80401 1.3646e+02     0.7952    81.9714     0.1474     0.0220  0.000e+00
      0.727    10.7443 200.757747    280.805    7.95233   71.74731 1.4464e+02     0.7908    82.0619     0.1369     0.0205  0.000e+00
      0.707    10.7690 200.576932    280.358    7.94910   71.75941 1.5523e+02     0.7749    82.3876     0.1312     0.0198  0.000e+00
      0.710    10.7926 200.396120    279.920    7.97540   72.03614 1.3991e+02     0.7899    82.0800     0.1291     0.0200  0.000e+00
      0.724    10.8061 200.215317    279.563    8.00539   72.32960 1.4365e+02     0.7760    82.3662     0.1280     0.0204  0.000e+00
      0.746    10.8116 200.064652    279.309    8.04008   72.65232 1.4347e+02     0.7883    82.1129     0.1246     0.0208  0.000e+00
      0.771    10.8025 200.094791    279.422    8.08154   73.01151 1.4292e+02     0.7952    81.9714     0.1251     0.0207  0.000e+00
      0.788    10.7842 200.396127    279.986    8.13417   73.45592 1.4574e+02     0.7969    81.9369     0.1305     0.0205  0.000e+00
      0.783    10.7772 200.576929    280.294    8.17967   73.85476 1.4955e+02     0.7869    82.1409     0.1308     0.0214  0.000e+00
      0.773    10.7684 200.637200    280.447    8.21845   74.18987 1.3959e+02     0.7978    81.9171     0.1332     0.0219  0.000e+00
      0.766    10.7723 200.607064    280.374    8.24478   74.43430 1.4269e+02     0.7797    82.2906     0.1328     0.0215  0.000e+00
      0.767    10.7837 200.516658    280.159    8.26669   74.65174 1.4192e+02     0.8023    81.8250     0.1330     0.0211  0.000e+00
      0.778    10.7891 200.456389    280.032    8.28956   74.86777 1.4117e+02     0.7877    82.1244     0.1393     0.0218  0.000e+00
      0.784    10.7936 200.516652    280.081    8.31883   75.13982 1.4459e+02     0.7921    82.0339     0.1444     0.0214  0.000e+00
      0.771    10.7990 200.697446    280.291    8.34271   75.36512 1.4656e+02     0.8056    81.7576     0.1431     0.0223  0.000e+00
      0.751    10.8027 200.727577    280.304    8.36460   75.56937 1.4666e+02     0.7805    82.2725     0.1373     0.0220  0.000e+00
      0.730    10.8186 200.817965    280.306    8.37712   75.71038 1.5074e+02     0.7877    82.1261     0.1476     0.0228  0.000e+00
      0.732    10.8426 200.516619    279.698    8.38121   75.78942 1.4365e+02     0.7812    82.2593     0.1667     0.0234  0.000e+00
      0.782    10.8548 200.185154    279.141    8.37961   75.79631 1.3721e+02     0.7847    82.1869     0.1553     0.0221  0.000e+00
      0.863    10.8499 199.944101    278.843    8.39018   75.88318 1.3680e+02     0.8021    81.8300     0.1472     0.0224  0.000e+00
      0.937    10.8151 199.763334    278.862    8.39587   75.87332 1.4801e+02     0.8178    81.5092     0.1425     0.0225  0.000e+00
      0.991    10.7775 199.733227    279.112    8.40575   75.89640 1.4038e+02     0.8085    81.6984     0.1544     0.0230  0.000e+00
      1.033    10.7543 199.823638    279.420    8.42527   76.03175 1.2465e+02     0.7990    81.8941     0.1607     0.0221  0.000e+00
      1.068    10.7382 200.094838    279.925    8.45242   76.24816 1.2593e+02     0.7809    82.2642     0.1543     0.0232  0.000e+00
      1.089    10.7252 200.275641    280.280    8.47454   76.42470 1.3908e+02     0.7874    82.1310     0.1463     0.0219  0.000e+00
      1.109    10.7147 200.426311    280.573    8.49112   76.55563 1.3520e+02     0.7863    82.1540     0.1373     0.0192  0.000e+00
      1.147    10.7066 200.004463    280.047    8.49509   76.57680 1.2147e+02     0.7896    82.0866     0.1316     0.0204  0.000e+00
      1.211    10.7006 199.703150    279.672    8.49067   76.52621 1.1864e+02     0.7845    82.1919     0.1290     0.0197  0.000e+00
      1.277    10.6912 199.431974    279.365    8.49829   76.57805 1.2406e+02     0.8102    81.6638     0.1369     0.0201  0.000e+00
      1.328    10.6830 199.462111    279.472    8.51736   76.73533 1.2738e+02     0.7962    81.9500     0.1443     0.0195  0.000e+00
      1.364    10.6810 199.582639    279.656    8.56581   77.16838 1.2480e+02     0.7916    82.0454     0.1458     0.0186  0.000e+00
      1.387    10.6827 199.883955    280.065    8.63781   77.82009 1.1758e+02     0.8003    81.8661     0.1428     0.0187  0.000e+00
      1.398    10.6815 200.094881    280.370    8.72108   78.56817 1.1456e+02     0.7957    81.9616     0.1405     0.0188  0.000e+00
      1.409    10.6776 200.064751    280.359    8.79659   79.24119 1.1408e+02     0.7950    81.9747     0.1487     0.0197  0.000e+00
      1.453    10.6777 199.582643    279.682    8.85305   79.74985 1.1509e+02     0.7927    82.0224     0.1565     0.0192  0.000e+00
      1.522    10.6776 199.341593    279.345    8.88649   80.05077 1.1170e+02     0.7910    82.0570     0.1589     0.0197  0.000e+00
      1.601    10.6727 199.221074    279.214    8.89765   80.14220 1.1020e+02     0.7942    81.9928     0.1535     0.0203  0.000e+00
      1.679    10.6677 199.100555    279.084    8.89742   80.13085 1.0971e+02     0.7917    82.0438     0.1496     0.0207  0.000e+00
      1.742    10.6639 199.160820    279.199    8.89860   80.13436 1.0705e+02     0.7942    81.9928     0.1470     0.0210  0.000e+00
      1.785    10.6622 199.341608    279.466    8.89709   80.11765 1.0366e+02     0.7841    82.1984     0.1409     0.0219  0.000e+00
      1.807    10.6618 199.673054    279.934    8.89954   80.13896 1.0176e+02     0.7885    82.1096     0.1384     0.0220  0.000e+00
      1.825    10.6601 199.642924    279.905    8.90149   80.15337 1.0067e+02     0.8004    81.8645     0.1341     0.0228  0.000e+00
      1.859    10.6573 199.341613    279.504    8.89464   80.08640 1.0126e+02     0.8004    81.8645     0.1332     0.0225  0.000e+00
      1.915    10.6543 199.221092    279.359    8.88283   79.97437 1.0117e+02     0.7948    81.9796     0.1328     0.0223  0.000e+00
      1.970    10.6512 199.070440    279.172    8.87237   79.87447 1.0180e+02     0.7893    82.0932     0.1334     0.0248  0.000e+00
      2.027    10.6501 199.100573    279.222    8.87455   79.89212 1.0115e+02     0.7836    82.2099     0.1354     0.0235  0.000e+00
      2.091    10.6499 199.010182    279.097    8.90534   80.16888 9.8659e+01     0.7969    81.9369     0.1328     0.0225  0.000e+00
      2.153    10.6497 199.010183    279.099    8.94594   80.53395 9.3969e+01     0.8005    81.8629     0.1373     0.0211  0.000e+00
      2.187    10.6503 199.281361    279.475    9.00736   81.08813 9.1009e+01     0.7926    82.0241     0.1398     0.0200  0.000e+00
      2.205    10.6516 199.462148    279.718    9.07621   81.71055 9.0085e+01     0.8088    81.6934     0.1424     0.0202  0.000e+00
      2.228    10.6506 199.401886    279.642    9.15335   82.40291 8.9517e+01     0.7864    82.1524     0.1437     0.0202  0.000e+00
      2.261    10.6495 199.221101    279.396    9.24332   83.21071 9.0881e+01     0.7914    82.0487     0.1504     0.0200  0.000e+00
      2.298    10.6489 199.100579    279.232    9.33694   84.05223 9.1298e+01     0.7852    82.1770     0.1625     0.0198  0.000e+00
      2.345    10.6478 199.070449    279.198    9.42113   84.80797 8.9738e+01     0.7804    82.2757     0.1675     0.0197  0.000e+00
      2.403    10.6462 199.010190    279.126    9.50181   85.53116 8.7941e+01     0.7815    82.2527     0.1674     0.0204  0.000e+00
      2.460    10.6451 199.010192    279.135    9.57249   86.16512 8.5591e+01     0.7835    82.2116     0.1630     0.0210  0.000e+00
      2.510    10.6449 199.010193    279.137    9.62520   86.63919 8.3085e+01     0.8028    81.8168     0.1555     0.0226  0.000e+00
      2.549    10.6454 199.070455    279.217    9.64523   86.82054 8.1665e+01     0.7952    81.9714     0.1730     0.0267  0.000e+00
      2.586    10.6468 199.100585    279.248    9.63393   86.72170 8.1078e+01     0.7996    81.8809     0.1887     0.0249  0.000e+00
      2.628    10.6474 199.070455    279.202    9.58514   86.28352 8.0680e+01     0.7841    82.1984     0.1817     0.0249  0.000e+00
      2.670    10.6467 199.070456    279.207    9.50578   85.56777 7.9399e+01     0.7892    82.0948     0.1691     0.0233  0.000e+00
      2.712    10.6453 199.010196    279.134    9.41713   84.76698 7.8372e+01     0.7873    82.1326     0.1608     0.0220  0.000e+00
      2.760    10.6444 199.010198    279.141    9.34891   84.15124 7.7101e+01     0.7816    82.2511     0.1703     0.0227  0.000e+00
      2.815    10.6435 199.010200    279.148    9.28902   83.61032 7.5424e+01     0.7871    82.1376     0.1776     0.0240  0.000e+00
      2.861    10.6431 199.010201    279.150    9.26340   83.37909 7.4856e+01     0.7885    82.1080     0.1976     0.0241  0.000e+00
      2.895    10.6441 199.010201    279.143    9.25122   83.27127 7.4540e+01     0.7978    81.9171     0.1851     0.0254  0.000e+00
      2.924    10.6467 199.070461    279.207    9.26436   83.39458 7.4187e+01     0.7895    82.0882     0.1699     0.0273  0.000e+00
      2.956    10.6479 199.070461    279.197    9.27993   83.53717 7.3318e+01     0.7935    82.0060     0.1593     0.0301  0.000e+00
      2.990    10.6478 199.070461    279.198    9.29635   83.68474 7.2255e+01     0.7934    82.0076     0.1519     0.0270  0.000e+00
      3.025    10.6471 199.070463    279.204    9.30272   83.74072 7.0522e+01     0.7869    82.1409     0.1461     0.0254  0.000e+00
      3.073    10.6456 199.010203    279.131    9.32774   83.96299 6.8855e+01     0.7885    82.1096     0.1481     0.0250  0.000e+00
      3.133    10.6438 198.949944    279.061    9.34657   84.12892 6.7833e+01     0.7868    82.1441     0.1485     0.0278  0.000e+00
      3.195    10.6423 198.949946    279.072    9.36602   84.30114 6.7441e+01     0.7901    82.0751     0.1508     0.0298  0.000e+00
      3.251    10.6421 198.949947    279.074    9.38895   84.50705 6.6862e+01     0.7744    82.3991     0.1561     0.0279  0.000e+00
      3.292    10.6430 199.010209    279.151    9.41072   84.70485 6.6043e+01     0.7919    82.0389     0.1524     0.0246  0.000e+00
      3.324    10.6457 199.100600    279.257    9.43179   84.89989 6.4607e+01     0.7926    82.0241     0.1505     0.0217  0.000e+00
      3.344    10.6477 199.281385    279.495    9.41019   84.70939 6.3570e+01     0.7936    82.0043     0.1582     0.0198  0.000e+00
      3.354    10.6480 199.371778    279.620    9.39000   84.52829 6.3135e+01     0.7883    82.1129     0.1867     0.0207  0.000e+00
      3.372    10.6470 199.221123    279.416    9.34285   84.10193 6.2351e+01     0.8040    81.7921     0.2174     0.0204  0.000e+00
      3.406    10.6463 199.160863    279.337    9.29387   83.65951 6.2099e+01     0.7824    82.2346     0.2193     0.0210  0.000e+00
      3.455    10.6456 199.010210    279.131    9.24070   83.17950 6.1816e+01     0.7885    82.1080     0.2052     0.0208  0.000e+00
      3.520    10.6444 199.010212    279.141    9.19238   82.74227 6.0727e+01     0.7856    82.1688     0.2205     0.0276  0.000e+00
      3.591    10.6427 198.949953    279.069    9.16717   82.51202 5.9563e+01     0.7771    82.3432     0.2869     0.0260  0.000e+00
      3.650    10.6418 198.949955    279.076    9.15081   82.36312 5.8216e+01     0.7913    82.0504     0.2663     0.0249  0.000e+00
      3.690    10.6421 199.070478    279.243    9.17137   82.54877 5.7362e+01     0.8068    81.7345     0.2322     0.0237  0.000e+00
      3.718    10.6443 199.251263    279.480    9.19134   82.73277 5.6690e+01     0.7988    81.8974     0.2017     0.0253  0.000e+00
      3.740    10.6447 199.281394    279.518    9.20786   82.88233 5.6292e+01     0.7917    82.0422     0.1788     0.0244  0.000e+00
      3.776    10.6436 199.160871    279.358    9.20248   82.83163 5.5730e+01     0.7946    81.9846     0.1678     0.0230  0.000e+00
      3.832    10.6425 199.010219    279.155    9.17965   82.62405 5.4971e+01     0.7968    81.9385     0.1616     0.0223  0.000e+00
      3.909    10.6415 198.889699    278.994    9.13272   82.19967 5.4240e+01     0.7987    81.8990     0.1624     0.0222  0.000e+00
      3.993    10.6392 198.889702    279.012    9.07395   81.66638 5.2725e+01     0.8048    81.7740     0.1599     0.0224  0.000e+00
      4.067    10.6368 198.889705    279.031    9.02707   81.23996 5.1406e+01     0.7978    81.9188     0.1747     0.0230  0.000e+00
      4.117    10.6360 198.949967    279.122    9.00485   81.03848 5.0794e+01     0.7901    82.0751     0.1752     0.0225  0.000e+00
      4.140    10.6365 199.221145    279.498    8.99146   80.91903 5.0482e+01     0.7963    81.9484     0.1683     0.0210  0.000e+00
      4.152    10.6358 199.251276    279.546    8.99616   80.95992 5.0225e+01     0.7946    81.9829     0.1600     0.0208  0.000e+00
      4.159    10.6341 199.281409    279.602    9.00875   81.06998 4.9689e+01     0.8010    81.8530     0.1536     0.0204  0.000e+00
      4.171    10.6372 199.251276    279.535    9.00314   81.02530 4.9332e+01     0.7896    82.0866     0.1497     0.0205  0.000e+00
      4.204    10.6400 199.100620    279.302    8.98838   80.89772 4.8891e+01     0.8044    81.7839     0.1556     0.0226  0.000e+00
      4.254    10.6401 199.010229    279.174    8.95441   80.59219 4.8411e+01     0.7992    81.8892     0.1634     0.0243  0.000e+00
      4.313    10.6387 198.949969    279.100    8.90523   80.14697 4.8105e+01     0.8045    81.7806     0.1723     0.0235  0.000e+00
      4.367    10.6359 198.889711    279.038    8.85720   79.70941 4.7709e+01     0.7988    81.8974     0.1657     0.0224  0.000e+00
      4.420    10.6328 198.889714    279.063    8.84633   79.60578 4.7133e+01     0.7828    82.2264     0.1704     0.0217  0.000e+00
      4.474    10.6302 198.889717    279.082    8.85428   79.67264 4.6205e+01     0.8011    81.8497     0.1759     0.0211  0.000e+00
      4.525    10.6282 198.889719    279.099    8.88278   79.92526 4.5032e+01     0.7968    81.9385     0.1692     0.0201  0.000e+00
      4.571    10.6262 198.889721    279.114    8.91331   80.19629 4.4177e+01     0.8140    81.5865     0.1609     0.0194  0.000e+00
      4.613    10.6252 198.859592    279.080    8.97791   80.77560 4.3728e+01     0.8192    81.4812     0.1566     0.0201  0.000e+00
      4.665    10.6241 198.889724    279.131    9.02966   81.23908 4.3635e+01     0.7999    81.8744     0.1619     0.0202  0.000e+00
      4.724    10.6227 198.799335    279.015    9.10867   81.94728 4.3033e+01     0.8151    81.5651     0.1574     0.0208  0.000e+00
      4.778    10.6212 198.829467    279.068    9.19545   82.72521 4.2297e+01     0.8023    81.8267     0.1539     0.0215  0.000e+00
      4.821    10.6206 198.859599    279.116    9.28319   83.51322 4.1756e+01     0.7921    82.0356     0.1534     0.0219  0.000e+00
      4.858    10.6208 198.889730    279.156    9.37366   84.32762 4.1376e+01     0.7924    82.0290     0.1605     0.0222  0.000e+00
      4.885    10.6217 199.010252    279.319    9.45750   85.08365 4.0984e+01     0.8041    81.7888     0.1675     0.0214  0.000e+00
      4.901    10.6238 199.070513    279.386    9.51830   85.63493 4.0804e+01     0.7893    82.0932     0.1880     0.0204  0.000e+00
      4.917    10.6247 199.070512    279.380    9.55792   85.99319 4.0525e+01     0.8009    81.8546     0.2026     0.0218  0.000e+00
      4.947    10.6241 199.010252    279.299    9.56319   86.03939 4.0205e+01     0.7901    82.0751     0.1913     0.0219  0.000e+00
      4.990    10.6240 198.889730    279.131    9.54685   85.89214 3.9874e+01     0.7881    82.1162     0.2024     0.0211  0.000e+00
      5.048    10.6232 198.829471    279.053    9.50880   85.54814 3.9385e+01     0.7925    82.0274     0.1884     0.0210  0.000e+00
      5.117    10.6211 198.829474    279.070    9.47057   85.19991 3.8521e+01     0.8159    81.5487     0.1749     0.0209  0.000e+00
      5.185    10.6185 198.799346    279.048    9.43360   84.86224 3.7742e+01     0.7903    82.0718     0.1688     0.0202  0.000e+00
      5.244    10.6174 198.829478    279.098    9.40651   84.61645 3.6927e+01     0.7949    81.9780     0.1637     0.0198  0.000e+00
      5.290    10.6173 198.859610    279.141    9.38740   84.44446 3.6513e+01     0.8220    81.4236     0.1621     0.0200  0.000e+00
      5.321    10.6181 199.010263    279.347    9.36241   84.22119 3.6282e+01     0.8136    81.5947     0.1569     0.0232  0.000e+00
      5.341    10.6193 199.010262    279.337    9.33906   84.01348 3.6155e+01     0.7943    81.9895     0.1631     0.0246  0.000e+00
      5.363    10.6188 199.070525    279.426    9.29060   83.57654 3.5996e+01     0.7902    82.0734     0.1751     0.0242  0.000e+00
      5.393    10.6180 199.010264    279.347    9.23796   83.10154 3.5762e+01     0.7828    82.2264     0.1682     0.0231  0.000e+00
      5.437    10.6179 198.889743    279.180    9.17866   82.56768 3.5492e+01     0.7897    82.0833     0.1620     0.0218  0.000e+00
      5.489    10.6172 198.859614    279.143    9.11447   81.98888 3.4983e+01     0.8097    81.6753     0.1688     0.0238  0.000e+00
      5.542    10.6161 198.829485    279.109    9.07439   81.62638 3.4506e+01     0.7856    82.1688     0.1677     0.0254  0.000e+00
      5.590    10.6151 198.799356    279.074    9.05540   81.45361 3.4023e+01     0.7969    81.9369     0.1984     0.0252  0.000e+00
      5.637    10.6148 198.829487    279.119    9.06789   81.56533 3.3576e+01     0.8002    81.8694     0.2050     0.0240  0.000e+00
      5.675    10.6148 198.859619    279.161    9.09753   81.83211 3.3294e+01     0.7995    81.8842     0.2016     0.0253  0.000e+00
      5.707    10.6153 198.829488    279.115    9.13016   82.12658 3.2984e+01     0.7813    82.2577     0.2048     0.0240  0.000e+00
      5.747    10.6163 198.829488    279.107    9.15824   82.38108 3.2586e+01     0.7866    82.1474     0.1949     0.0230  0.000e+00
      5.802    10.6165 198.799359    279.064    9.17069   82.49334 3.2050e+01     0.7924    82.0290     0.1942     0.0272  0.000e+00
      5.866    10.6158 198.769230    279.026    9.16314   82.42418 3.1402e+01     0.7853    82.1738     0.1873     0.0257  0.000e+00
      5.935    10.6148 198.739102    278.992    9.15071   82.31039 3.0832e+01     0.7991    81.8925     0.2197     0.0238  0.000e+00
      5.999    10.6143 198.829495    279.123    9.14411   82.25001 3.0513e+01     0.7965    81.9451     0.2998     0.0211  0.000e+00
      6.048    10.6144 198.799365    279.080    9.13743   82.19013 3.0028e+01     0.7829    82.2231     0.2679     0.0205  0.000e+00
      6.079    10.6161 199.010278    279.363    9.15070   82.31284 2.9848e+01     0.7873    82.1343     0.2305     0.0213  0.000e+00
      6.088    10.6177 199.100670    279.477    9.17013   82.49079 2.9769e+01     0.7875    82.1293     0.2011     0.0205  0.000e+00
      6.090    10.6177 199.100670    279.477    9.18441   82.61914 2.9838e+01     0.7891    82.0964     0.1823     0.0200  0.000e+00
      6.104    10.6204 199.070537    279.414    9.18315   82.61298 2.9691e+01     0.7825    82.2330     0.1700     0.0207  0.000e+00
      6.133    10.6225 198.950014    279.228    9.16322   82.43777 2.9430e+01     0.8202    81.4598     0.1746     0.0223  0.000e+00
      6.176    10.6234 198.889753    279.136    9.11519   82.00739 2.9044e+01     0.7942    81.9928     0.1665     0.0221  0.000e+00
      6.239    10.6226 198.889755    279.142    9.05141   81.43204 2.8451e+01     0.8114    81.6391     0.1650     0.0208  0.000e+00
      6.314    10.6194 198.739106    278.956    8.99445   80.91343 2.7841e+01     0.8061    81.7477     0.1717     0.0200  0.000e+00
      6.383    10.6099 198.769244    279.073    8.95786   80.56640 2.7432e+01     0.7921    82.0356     0.1778     0.0200  0.000e+00
      6.442    10.5979 198.708992    279.082    8.94010   80.38436 2.7205e+01     0.7893    82.0915     0.1954     0.0194  0.000e+00
      6.494    10.5859 198.739131    279.218    8.94167   80.37601 2.6848e+01     0.7974    81.9270     0.2134     0.0202  0.000e+00
      6.540    10.5758 198.739138    279.298    8.95147   80.44498 2.6509e+01     0.7969    81.9369     0.2061     0.0204  0.000e+00
      6.577    10.5687 198.769274    279.396    8.96338   80.53887 2.6194e+01     0.8068    81.7345     0.1940     0.0197  0.000e+00
      6.608    10.5652 198.889799    279.593    8.97444   80.63165 2.5936e+01     0.8043    81.7855     0.1865     0.0190  0.000e+00
      6.634    10.5658 198.889799    279.588    8.98422   80.72069 2.5777e+01     0.8033    81.8053     0.2204     0.0192  0.000e+00
      6.666    10.5661 198.829538    279.501    8.99331   80.80283 2.5537e+01     0.8024    81.8234     0.2284     0.0198  0.000e+00
      6.703    10.5611 198.739151    279.414    9.01030   80.94601 2.5344e+01     0.8056    81.7576     0.3204     0.0195  0.000e+00
      6.739    10.5533 198.769287    279.517    9.04207   81.21678 2.5077e+01     0.8168    81.5306     0.3306     0.0201  0.000e+00
      6.781    10.5456 198.678902    279.450    9.07792   81.52404 2.4765e+01     0.8199    81.4664     0.3035     0.0205  0.000e+00
      6.826    10.5385 198.648777    279.464    9.12334   81.91846 2.4427e+01     0.8204    81.4565     0.2657     0.0214  0.000e+00
      6.871    10.5262 198.648786    279.561    9.16792   82.29500 2.4098e+01     0.8202    81.4598     0.2937     0.0232  0.000e+00
      6.918    10.5086 198.528278    279.529    9.21087   82.64663 2.3882e+01     0.8163    81.5404     0.2760     0.0214  0.000e+00
      6.967    10.4955 198.468027    279.548    9.24996   82.97193 2.3572e+01     0.8174    81.5174     0.2427     0.0204  0.000e+00
      7.019    10.4832 198.347517    279.475    9.26832   83.11273 2.3221e+01     0.8154    81.5585     0.2241     0.0202  0.000e+00
      7.069    10.4677 198.317398    279.555    9.27625   83.15365 2.2944e+01     0.8308    81.2443     0.2068     0.0213  0.000e+00
      7.118    10.4481 198.166764    279.497    9.26106   82.97964 2.2531e+01     0.8192    81.4812     0.1964     0.0223  0.000e+00
      7.155    10.4315 198.347553    279.883    9.24998   82.84825 2.2298e+01     0.8186    81.4927     0.2023     0.0223  0.000e+00
      7.182    10.4238 198.528337    280.199    9.23202   82.67241 2.2180e+01     0.8127    81.6145     0.2379     0.0223  0.000e+00
      7.209    10.4216 198.347560    279.962    9.22508   82.60599 2.1943e+01     0.8246    81.3710     0.2235     0.0220  0.000e+00
      7.241    10.4139 198.317436    279.980    9.22511   82.59142 2.1831e+01     0.8153    81.5602     0.2134     0.0220  0.000e+00
      7.280    10.4024 198.166796    279.858    9.23852   82.68923 2.1582e+01     0.8225    81.4138     0.2274     0.0237  0.000e+00
      7.326    10.3916 198.106545    279.858    9.26231   82.88121 2.1306e+01     0.8234    81.3957     0.2212     0.0227  0.000e+00
      7.376    10.3805 197.986036    279.775    9.29915   83.18928 2.0985e+01     0.8173    81.5190     0.2164     0.0212  0.000e+00
      7.424    10.3675 197.955916    279.836    9.34854   83.60564 2.0889e+01     0.8148    81.5700     0.2078     0.0200  0.000e+00
      7.465    10.3552 197.895666    279.848    9.39736   84.01804 2.0658e+01     0.8205    81.4549     0.2129     0.0210  0.000e+00
      7.499    10.3477 197.895672    279.907    9.42736   84.27153 2.0394e+01     0.8271    81.3200     0.2197     0.0217  0.000e+00
      7.533    10.3415 197.986064    280.084    9.45458   84.50263 2.0246e+01     0.8069    81.7329     0.2091     0.0217  0.000e+00
      7.581    10.3324 197.805296    279.901    9.45424   84.48146 1.9998e+01     0.8222    81.4203     0.1979     0.0214  0.000e+00
      7.644    10.3211 197.654660    279.777    9.43594   84.29560 1.9672e+01     0.8290    81.2822     0.2043     0.0210  0.000e+00
      7.715    10.3096 197.534154    279.697    9.39020   83.86442 1.9274e+01     0.8202    81.4615     0.2138     0.0207  0.000e+00
      7.790    10.2912 197.413653    279.673    9.36157   83.57256 1.8836e+01     0.8309    81.2427     0.2070     0.0227  0.000e+00
      7.853    10.2702 197.353411    279.754    9.33925   83.33228 1.8458e+01     0.8338    81.1835     0.2225     0.0217  0.000e+00
      7.899    10.2523 197.654709    280.323    9.31655   83.09504 1.8260e+01     0.8179    81.5075     0.2248     0.0225  0.000e+00
      7.918    10.2476 198.106649    281.002    9.30794   83.00924 1.8237e+01     0.8296    81.2690     0.2702     0.0231  0.000e+00
      7.922    10.2407 198.317560    281.356    9.30195   82.94249 1.8147e+01     0.8223    81.4171     0.2590     0.0221  0.000e+00
      7.924    10.2409 198.347690    281.397    9.29788   82.90664 1.8180e+01     0.8405    81.0486     0.2370     0.0233  0.000e+00
      7.931    10.2559 198.317551    281.235    9.28089   82.78424 1.8147e+01     0.8279    81.3036     0.2200     0.0233  0.000e+00
      7.950    10.2656 198.046379    280.773    9.25717   82.59124 1.8106e+01     0.8157    81.5519     0.2141     0.0220  0.000e+00
      7.991    10.2717 197.654698    280.169    9.23206   82.37879 1.7811e+01     0.8364    81.1308     0.2057     0.0216  0.000e+00
      8.050    10.2745 197.353412    279.720    9.21562   82.23742 1.7493e+01     0.8415    81.0272     0.1981     0.0214  0.000e+00
      8.115    10.2579 197.172655    279.595    9.22214   82.26361 1.7159e+01     0.8224    81.4154     0.1990     0.0209  0.000e+00
      8.181    10.2329 197.052160    279.623    9.25181   82.47974 1.6886e+01     0.8686    80.4811     0.2167     0.0205  0.000e+00
      8.239    10.2103 196.961792    279.674    9.29156   82.79018 1.6608e+01     0.8485    80.8874     0.2589     0.0207  0.000e+00
      8.290    10.1924 197.052188    279.944    9.33606   83.15200 1.6378e+01     0.8282    81.2986     0.3317     0.0197  0.000e+00
      8.337    10.1772 196.991943    279.980    9.37029   83.42699 1.6199e+01     0.8279    81.3036     0.3484     0.0194  0.000e+00
      8.379    10.1627 196.961826    280.053    9.38181   83.50102 1.5989e+01     0.8301    81.2591     0.3344     0.0212  0.000e+00
      8.414    10.1514 196.991961    280.185    9.37622   83.42930 1.5941e+01     0.8242    81.3792     0.3135     0.0227  0.000e+00
      8.449    10.1434 197.022095    280.292    9.34862   83.16799 1.5759e+01     0.8290    81.2822     0.3096     0.0224  0.000e+00
      8.483    10.1356 196.991973    280.311    9.33369   83.02003 1.5631e+01     0.8183    81.4993     0.2890     0.0217  0.000e+00
      8.520    10.1288 196.931722    280.280    9.32852   82.96077 1.5469e+01     0.8548    80.7591     0.2585     0.0213  0.000e+00
      8.560    10.1229 196.841344    280.199    9.33097   82.97097 1.5281e+01     0.8450    80.9581     0.2486     0.0210  0.000e+00
      8.605    10.1158 196.750966    280.127    9.35763   83.19410 1.5112e+01     0.8404    81.0502     0.2358     0.0205  0.000e+00
      8.650    10.1017 196.720849    280.196    9.39280   83.47919 1.4900e+01     0.8150    81.5668     0.2393     0.0208  0.000e+00
      8.693    10.0889 196.660603    280.213    9.44103   83.88257 1.4732e+01     0.8270    81.3216     0.2573     0.0208  0.000e+00
      8.736    10.0800 196.600355    280.197    9.47754   84.18942 1.4513e+01     0.8147    81.5733     0.2470     0.0209  0.000e+00
      8.777    10.0739 196.660614    280.332    9.50245   84.39849 1.4326e+01     0.8147    81.5733     0.2590     0.0215  0.000e+00
      8.823    10.0681 196.600364    280.293    9.50491   84.40882 1.4165e+01     0.8257    81.3480     0.2448     0.0213  0.000e+00
      8.872    10.0620 196.509987    280.213    9.49139   84.27657 1.3951e+01     0.8229    81.4055     0.2276     0.0233  0.000e+00
      8.925    10.0538 196.419613    280.150    9.47054   84.07514 1.3807e+01     0.8354    81.1522     0.2141     0.0311  0.000e+00
      8.973    10.0452 196.419619    280.218    9.45321   83.90452 1.3608e+01     0.8325    81.2114     0.2107     0.0299  0.000e+00
      9.018    10.0378 196.449751    280.321    9.46271   83.97405 1.3455e+01     0.8186    81.4927     0.2389     0.0270  0.000e+00
      9.058    10.0330 196.419628    280.316    9.46369   83.97330 1.3310e+01     0.8355    81.1489     0.2412     0.0243  0.000e+00
      9.091    10.0289 196.449759    280.392    9.49281   84.22354 1.3205e+01     0.8534    80.7870     0.2283     0.0223  0.000e+00
      9.121    10.0256 196.479888    280.461    9.51193   84.38672 1.3130e+01     0.8476    80.9055     0.2320     0.0218  0.000e+00
      9.154    10.0247 196.510016    280.511    9.53327   84.57426 1.2978e+01     0.8458    80.9400     0.2437     0.0223  0.000e+00
      9.196    10.0213 196.299131    280.238    9.55311   84.74334 1.2822e+01     0.8524    80.8084     0.2381     0.0218  0.000e+00
      9.241    10.0147 196.178629    280.119    9.58524   85.01505 1.2629e+01     0.8272    81.3184     0.2340     0.0219  0.000e+00
      9.292    10.0093 196.178633    280.162    9.58768   85.02600 1.2464e+01     0.8281    81.3003     0.2321     0.0217  0.000e+00
      9.347    10.0036 196.088258    280.078    9.60156   85.13750 1.2267e+01     0.8241    81.3809     0.2400     0.0215  0.000e+00
      9.406     9.9965 195.997884    280.006    9.61018   85.19967 1.2097e+01     0.8190    81.4845     0.2345     0.0213  0.000e+00
      9.463     9.9904 195.967763    280.012    9.60364   85.12942 1.1982e+01     0.8156    81.5552     0.2491     0.0225  0.000e+00
      9.515     9.9857 195.937641    280.006    9.59897   85.07877 1.1799e+01     0.8140    81.5865     0.2437     0.0221  0.000e+00
      9.564     9.9809 195.937645    280.045    9.57629   84.86801 1.1596e+01     0.8365    81.1292     0.2337     0.0224  0.000e+00
      9.606     9.9759 195.997901    280.171    9.55725   84.68936 1.1469e+01     0.8369    81.1210     0.2662     0.0221  0.000e+00
      9.646     9.9726 195.997904    280.197    9.55871   84.69572 1.1338e+01     0.8427    81.0042     0.2757     0.0211  0.000e+00
      9.678     9.9707 196.028032    280.256    9.57395   84.82699 1.1214e+01     0.8260    81.3430     0.2893     0.0217  0.000e+00
      9.704     9.9691 196.058160    280.312    9.60665   85.11351 1.1147e+01     0.8359    81.1423     0.2893     0.0215  0.000e+00
      9.727     9.9693 196.088287    280.353    9.65466   85.53929 1.1076e+01     0.8521    80.8133     0.2875     0.0223  0.000e+00
      9.754     9.9685 195.997909    280.230    9.71064   86.03368 1.0990e+01     0.8354    81.1522     0.2715     0.0224  0.000e+00
      9.788     9.9657 195.937658    280.166    9.75301   86.40328 1.0878e+01     0.8485    80.8874     0.2586     0.0215  0.000e+00
      9.835     9.9618 195.817157    280.025    9.78834   86.70831 1.0683e+01     0.8664    80.5255     0.2770     0.0204  0.000e+00
      9.892     9.9578 195.817161    280.057    9.79855   86.79056 1.0579e+01     0.8359    81.1423     0.2619     0.0201  0.000e+00
      9.949     9.9537 195.756912    280.004    9.78029   86.62035 1.0401e+01     0.8210    81.4434     0.2489     0.0202  0.000e+00
     10.001     9.9520 195.726788    279.974    9.76021   86.43910 1.0245e+01     0.8278    81.3068     0.2556     0.0206  0.000e+00
     10.042     9.9521 195.877419    280.189    9.71500   86.03892 1.0126e+01     0.8337    81.1868     0.2557     0.0218  0.000e+00
     10.071     9.9558 195.967796    280.289    9.65664   85.52971 1.0076e+01     0.8475    80.9071     0.2628     0.0221  0.000e+00
     10.093     9.9618 196.238932    280.628    9.60271   85.06409 1.0022e+01     0.8315    81.2312     0.2901     0.0230  0.000e+00
     10.115     9.9648 196.359437    280.776    9.53243   84.44754 9.9621e+00     0.8201    81.4631     0.2885     0.0227  0.000e+00
     10.149     9.9640 195.937666    280.180    9.46989   83.89183 9.8706e+00     0.8282    81.2986     0.2771     0.0214  0.000e+00
     10.203     9.9598 195.817165    280.041    9.42895   83.52084 9.7229e+00     0.8430    80.9976     0.2673     0.0208  0.000e+00
     10.264     9.9531 195.666540    279.880    9.40100   83.25991 9.5215e+00     0.8509    80.8380     0.2918     0.0224  0.000e+00
     10.329     9.9475 195.666545    279.925    9.37914   83.05528 9.3475e+00     0.8343    81.1736     0.3092     0.0217  0.000e+00
     10.390     9.9440 195.576171    279.823    9.37938   83.05069 9.1831e+00     0.8467    80.9219     0.2879     0.0219  0.000e+00
     10.438     9.9415 195.726803    280.058    9.40561   83.27814 9.1068e+00     0.8480    80.8956     0.2798     0.0225  0.000e+00
     10.465     9.9430 196.299204    280.866    9.44272   83.60986 9.0488e+00     0.8349    81.1621     0.2863     0.0225  0.000e+00
     10.478     9.9455 196.540219    281.191    9.45295   83.70533 9.0215e+00     0.8284    81.2937     0.2708     0.0224  0.000e+00
     10.496     9.9437 196.540220    281.205    9.46046   83.76836 8.9752e+00     0.8302    81.2575     0.2687     0.0221  0.000e+00
     10.530     9.9534 196.299199    280.782    9.43441   83.55680 8.8691e+00     0.8803    80.2458     0.2943     0.0214  0.000e+00
     10.575     9.9605 196.028055    280.337    9.40526   83.31236 8.7487e+00     0.8355    81.1489     0.2771     0.0220  0.000e+00
     10.633     9.9601 195.817173    280.039    9.35972   82.90810 8.5901e+00     0.8381    81.0963     0.2733     0.0223  0.000e+00
     10.700     9.9558 195.726798    279.944    9.32118   82.55842 8.3791e+00     0.8707    80.4383     0.2718     0.0228  0.000e+00
     10.765     9.9491 195.666552    279.911    9.29928   82.35139 8.2389e+00     0.8663    80.5271     0.2690     0.0230  0.000e+00
     10.813     9.9444 195.937691    280.337    9.30406   82.38457 8.1414e+00     0.8508    80.8397     0.2888     0.0231  0.000e+00
     10.839     9.9459 196.419717    281.015    9.32573   82.57960 8.0708e+00     0.8516    80.8232     0.2979     0.0221  0.000e+00
     10.855     9.9439 196.540227    281.203    9.35423   82.82811 8.0336e+00     0.8594    80.6653     0.2917     0.0231  0.000e+00
     10.871     9.9495 196.660732    281.331    9.36987   82.97758 8.0479e+00     0.8577    80.7015     0.2824     0.0228  0.000e+00
     10.890     9.9621 196.781234    281.401    9.37165   83.01810 7.9838e+00     0.8554    80.7475     0.2837     0.0230  0.000e+00
     10.921     9.9798 196.720969    281.173    9.35143   82.87351 7.9470e+00     0.8716    80.4202     0.2742     0.0234  0.000e+00
     10.971    10.0009 196.479938    280.659    9.30709   82.52139 7.8125e+00     0.8652    80.5501     0.2845     0.0232  0.000e+00
     11.031    10.0129 196.178663    280.132    9.25027   82.04077 7.6776e+00     0.8546    80.7623     0.2818     0.0227  0.000e+00
     11.088    10.0162 196.118409    280.020    9.19739   81.57803 7.5570e+00     0.8758    80.3363     0.2654     0.0230  0.000e+00
     11.139    10.0122 196.148539    280.095    9.15812   81.22204 7.4516e+00     0.8698    80.4564     0.2599     0.0228  0.000e+00
     11.186    10.0033 196.118419    280.123    9.13557   81.00507 7.3567e+00     0.8641    80.5715     0.2544     0.0230  0.000e+00
     11.232     9.9917 196.148554    280.259    9.13244   80.95524 7.2747e+00     0.8463    80.9301     0.2562     0.0218  0.000e+00
     11.275     9.9802 196.118435    280.308    9.14228   81.02056 7.2026e+00     0.8575    80.7048     0.2557     0.0211  0.000e+00
     11.318     9.9710 196.088315    280.339    9.14740   81.04830 7.1020e+00     0.8551    80.7525     0.2515     0.0211  0.000e+00
     11.363     9.9632 196.058194    280.359    9.15036   81.05966 7.0504e+00     0.8558    80.7393     0.2489     0.0218  0.000e+00
     11.405     9.9562 196.118453    280.501    9.14093   80.96273 6.9557e+00     0.8421    81.0157     0.2485     0.0217  0.000e+00
     11.440     9.9518 196.238963    280.709    9.10845   80.66670 6.8879e+00     0.8402    81.0535     0.2551     0.0226  0.000e+00
     11.467     9.9513 196.419725    280.971    9.07118   80.33581 6.8220e+00     0.8681    80.4909     0.2718     0.0231  0.000e+00
     11.491     9.9526 196.449851    281.004    9.02752   79.95148 6.7759e+00     0.8637    80.5798     0.2979     0.0223  0.000e+00
     11.522     9.9524 196.419725    280.963    8.97258   79.46457 6.7195e+00     0.8603    80.6488     0.3175     0.0218  0.000e+00
     11.554     9.9519 196.449853    281.010    8.91397   78.94458 6.6575e+00     0.8646    80.5617     0.3094     0.0223  0.000e+00
     11.589     9.9520 196.419727    280.966    8.86383   78.50066 6.5879e+00     0.8663    80.5271     0.2902     0.0223  0.000e+00
     11.631     9.9520 196.238966    280.707    8.80737   78.00070 6.4993e+00     0.8537    80.7804     0.2644     0.0228  0.000e+00
     11.683     9.9496 195.997956    280.382    8.75284   77.51328 6.4130e+00     0.8576    80.7031     0.2766     0.0234  0.000e+00
     11.737     9.9446 195.817203    280.164    8.70080   77.04320 6.2941e+00     0.8553    80.7492     0.2732     0.0240  0.000e+00
     11.791     9.9388 195.726829    280.080    8.65750   76.64943 6.2049e+00     0.8634    80.5847     0.2983     0.0233  0.000e+00
     11.844     9.9346 195.666581    280.028    8.62986   76.39701 6.1608e+00     0.8672    80.5090     0.3123     0.0227  0.000e+00
     11.893     9.9315 195.666584    280.053    8.62391   76.33878 6.0681e+00     0.8661    80.5304     0.3133     0.0231  0.000e+00
     11.933     9.9284 195.666587    280.077    8.63374   76.42030 6.0121e+00     0.8660    80.5337     0.3068     0.0227  0.000e+00
     11.969     9.9272 195.666588    280.087    8.65320   76.59027 5.9725e+00     0.8589    80.6768     0.3022     0.0217  0.000e+00
     12.002     9.9275 195.726840    280.171    8.68289   76.85368 5.9005e+00     0.8639    80.5748     0.2834     0.0218  0.000e+00
     12.038     9.9268 195.666590    280.091    8.71142   77.10482 5.8387e+00     0.8621    80.6110     0.2840     0.0227  0.000e+00
     12.077     9.9248 195.666592    280.107    8.75113   77.45272 5.7816e+00     0.8545    80.7656     0.3005     0.0225  0.000e+00
     12.124     9.9216 195.515966    279.917    8.79430   77.82883 5.6966e+00     0.8583    80.6883     0.2971     0.0226  0.000e+00
     12.167     9.9181 195.485843    279.901    8.84611   78.28102 5.6148e+00     0.8502    80.8512     0.2873     0.0223  0.000e+00
     12.209     9.9149 195.455720    279.884    8.92361   78.96076 5.5589e+00     0.8537    80.7804     0.2905     0.0221  0.000e+00
     12.246     9.9128 195.546099    280.030    9.01084   79.72867 5.5026e+00     0.8493    80.8693     0.2851     0.0223  0.000e+00
     12.282     9.9114 195.515975    279.998    9.10569   80.56530 5.4605e+00     0.8555    80.7443     0.2762     0.0215  0.000e+00
     12.317     9.9104 195.485851    279.963    9.19510   81.35445 5.4158e+00     0.8418    81.0223     0.3185     0.0211  0.000e+00
     12.352     9.9096 195.455726    279.927    9.26479   81.96939 5.3666e+00     0.8541    80.7739     0.3163     0.0209  0.000e+00
     12.391     9.9084 195.485853    279.980    9.31245   82.38871 5.3084e+00     0.8476    80.9038     0.3088     0.0217  0.000e+00
     12.433     9.9068 195.365353    279.820    9.34013   82.63046 5.2349e+00     0.8471    80.9153     0.3038     0.0208  0.000e+00
     12.478     9.9047 195.425606    279.922    9.35905   82.79386 5.1707e+00     0.8410    81.0387     0.3169     0.0201  0.000e+00
     12.525     9.9028 195.365357    279.851    9.36690   82.85959 5.0936e+00     0.8442    80.9729     0.3240     0.0207  0.000e+00
     12.572     9.9012 195.365359    279.864    9.38031   82.97507 5.0239e+00     0.8489    80.8791     0.3559     0.0210  0.000e+00
     12.618     9.8998 195.365361    279.876    9.39666   83.11696 4.9685e+00     0.8544    80.7673     0.3513     0.0224  0.000e+00
     12.660     9.8988 195.365362    279.884    9.42503   83.36584 4.9013e+00     0.8505    80.8462     0.3401     0.0223  0.000e+00
     12.698     9.8977 195.365363    279.892    9.45353   83.61584 4.8533e+00     0.8562    80.7311     0.3161     0.0216  0.000e+00
     12.725     9.8971 195.455741    280.027    9.49323   83.96578 4.8247e+00     0.8552    80.7508     0.3146     0.0217  0.000e+00
     12.747     9.8978 195.485866    280.064    9.53988   84.37979 4.8006e+00     0.8533    80.7887     0.3024     0.0214  0.000e+00
     12.771     9.8999 195.455740    280.004    9.58297   84.76517 4.7791e+00     0.8712    80.4284     0.2837     0.0214  0.000e+00
     12.798     9.9007 195.485866    280.041    9.62761   85.16169 4.7552e+00     0.8583    80.6883     0.2908     0.0205  0.000e+00
     12.838     9.8997 195.395490    279.919    9.65466   85.39892 4.7027e+00     0.8483    80.8907     0.2805     0.0215  0.000e+00
     12.899     9.8976 195.244866    279.721    9.67930   85.61244 4.6208e+00     0.8625    80.6028     0.2802     0.0216  0.000e+00
     12.973     9.8948 195.184618    279.657    9.69678   85.76135 4.5136e+00     0.8679    80.4959     0.3008     0.0217  0.000e+00
     13.052     9.8929 195.184621    279.672    9.69388   85.73187 4.4088e+00     0.8624    80.6061     0.3633     0.0223  0.000e+00
     13.119     9.8911 195.154498    279.643    9.69249   85.71593 4.3280e+00     0.8669    80.5156     0.3864     0.0217  0.000e+00
     13.168     9.8896 195.305126    279.871    9.68242   85.62392 4.2564e+00     0.8621    80.6110     0.3516     0.0217  0.000e+00
     13.197     9.8902 195.726886    280.471    9.65212   85.35742 4.2244e+00     0.8590    80.6752     0.3316     0.0220  0.000e+00
     13.211     9.8908 195.877517    280.682    9.61255   85.00864 4.2206e+00     0.8734    80.3840     0.3252     0.0227  0.000e+00
     13.222     9.8904 195.937770    280.771    9.55615   84.50915 4.2153e+00     0.8617    80.6209     0.3040     0.0227  0.000e+00
     13.240     9.9000 195.937764    280.694    9.49515   83.98865 4.1979e+00     0.8455    80.9466     0.3034     0.0232  0.000e+00
     13.272     9.9070 195.606373    280.163    9.44014   83.51581 4.1761e+00     0.8446    80.9647     0.3080     0.0225  0.000e+00
     13.320     9.9082 195.365368    279.808    9.38652   83.04362 4.0973e+00     0.8398    81.0634     0.3170     0.0230  0.000e+00
     13.373     9.9049 195.365371    279.835    9.34712   82.68866 4.0331e+00     0.8607    80.6406     0.3305     0.0230  0.000e+00
     13.421     9.8989 195.244874    279.710    9.33472   82.56724 3.9633e+00     0.8565    80.7245     0.3199     0.0223  0.000e+00
     13.464     9.8938 195.305129    279.837    9.34480   82.64659 3.9123e+00     0.8684    80.4843     0.3229     0.0225  0.000e+00
     13.503     9.8904 195.244881    279.778    9.37315   82.89049 3.8794e+00     0.8500    80.8561     0.3088     0.0224  0.000e+00
     13.540     9.8873 195.305135    279.889    9.39574   83.08432 3.8343e+00     0.8652    80.5485     0.3136     0.0226  0.000e+00
     13.576     9.8857 195.305136    279.902    9.41464   83.24828 3.7952e+00     0.8525    80.8051     0.3163     0.0227  0.000e+00
     13.613     9.8852 195.365388    279.993    9.41997   83.29438 3.7557e+00     0.8444    80.9696     0.3063     0.0225  0.000e+00
     13.653     9.8838 195.305139    279.918    9.41321   83.23174 3.7114e+00     0.8498    80.8610     0.3112     0.0229  0.000e+00
     13.698     9.8811 195.184640    279.767    9.39241   83.04262 3.6635e+00     0.8481    80.8939     0.3316     0.0234  0.000e+00
     13.744     9.8778 195.244894    279.880    9.36819   82.82202 3.6379e+00     0.8511    80.8331     0.3845     0.0229  0.000e+00
     13.792     9.8747 195.244896    279.905    9.34101   82.57559 3.6014e+00     0.8502    80.8512     0.3704     0.0220  0.000e+00
     13.841     9.8718 195.184649    279.842    9.32799   82.45486 3.5408e+00     0.8465    80.9268     0.3505     0.0220  0.000e+00
     13.888     9.8682 195.154527    279.827    9.32863   82.45357 3.4958e+00     0.8561    80.7327     0.3225     0.0221  0.000e+00
     13.934     9.8645 195.184655    279.900    9.32343   82.40043 3.4519e+00     0.8524    80.8084     0.3259     0.0220  0.000e+00
     13.973     9.8618 195.244908    280.008    9.33229   82.47358 3.4098e+00     0.8488    80.8808     0.3361     0.0227  0.000e+00
     14.009     9.8607 195.184659    279.930    9.33384   82.48511 3.3694e+00     0.8584    80.6867     0.3336     0.0235  0.000e+00
     14.039     9.8600 195.244910    280.022    9.32248   82.38342 3.3482e+00     0.8533    80.7887     0.3153     0.0235  0.000e+00
     14.067     9.8605 195.305161    280.105    9.30232   82.20611 3.3103e+00     0.8621    80.6110     0.3280     0.0251  0.000e+00
     14.104     9.8617 195.244910    280.008    9.26908   81.91479 3.2770e+00     0.8674    80.5057     0.3395     0.0234  0.000e+00
     14.156     9.8608 195.064161    279.757    9.22159   81.49331 3.2160e+00     0.8638    80.5781     0.3449     0.0225  0.000e+00
     14.211     9.8577 195.034039    279.739    9.17874   81.10863 3.1882e+00     0.8661    80.5304     0.3210     0.0230  0.000e+00
     14.264     9.8517 195.064169    279.830    9.15002   80.84349 3.1367e+00     0.8490    80.8759     0.3101     0.0232  0.000e+00
     14.305     9.8466 195.034048    279.828    9.13395   80.69162 3.0911e+00     0.8594    80.6653     0.2873     0.0230  0.000e+00
     14.341     9.8422 195.184677    280.079    9.13947   80.73203 3.0499e+00     0.8653    80.5469     0.2751     0.0225  0.000e+00
     14.367     9.8434 195.305178    280.242    9.15378   80.86093 3.0340e+00     0.8578    80.6982     0.2770     0.0223  0.000e+00
     14.391     9.8475 195.365426    280.296    9.16169   80.93860 3.0039e+00     0.8483    80.8907     0.2911     0.0227  0.000e+00
     14.427     9.8476 195.184675    280.036    9.16806   80.99497 2.9752e+00     0.8619    80.6159     0.3086     0.0222  0.000e+00
     14.475     9.8460 195.034051    279.833    9.16385   80.95460 2.9345e+00     0.8474    80.9088     0.2974     0.0220  0.000e+00
     14.527     9.8417 194.943680    279.738    9.13889   80.72583 2.8875e+00     0.8454    80.9499     0.2788     0.0227  0.000e+00
     14.576     9.8337 194.943686    279.802    9.11878   80.53305 2.8402e+00     0.8346    81.1687     0.2760     0.0228  0.000e+00
     14.621     9.8245 194.943693    279.875    9.10155   80.36348 2.8115e+00     0.8507    80.8413     0.2768     0.0225  0.000e+00
     14.660     9.8174 195.003948    280.019    9.10277   80.36084 2.7745e+00     0.8401    81.0568     0.2762     0.0221  0.000e+00
     14.697     9.8139 194.943701    279.961    9.10694   80.39099 2.7584e+00     0.8380    81.0996     0.2833     0.0225  0.000e+00
     14.736     9.8126 195.003952    280.058    9.13197   80.60933 2.7310e+00     0.8381    81.0963     0.2892     0.0223  0.000e+00
     14.779     9.8102 194.943705    279.991    9.15552   80.81265 2.7019e+00     0.8355    81.1489     0.2950     0.0215  0.000e+00
     14.829     9.8068 194.883458    279.931    9.15078   80.76436 2.6735e+00     0.8387    81.0848     0.2849     0.0226  0.000e+00
     14.879     9.8020 194.823212    279.883    9.15731   80.81285 2.6306e+00     0.8358    81.1440     0.3188     0.0225  0.000e+00
     14.921     9.7974 194.823216    279.921    9.15382   80.77312 2.5992e+00     0.8467    80.9219     0.3077     0.0230  0.000e+00
     14.962     9.7952 194.823218    279.938    9.15578   80.78631 2.5616e+00     0.8585    80.6834     0.2938     0.0233  0.000e+00
     14.996     9.7942 194.883469    280.033    9.15825   80.80616 2.5384e+00     0.8443    80.9713     0.2859     0.0248  0.000e+00
     15.029     9.7930 194.943720    280.129    9.17739   80.97280 2.5158e+00     0.8427    81.0042     0.3099     0.0244  0.000e+00
     15.061     9.7931 194.883471    280.042    9.18934   81.07832 2.4980e+00     0.8406    81.0453     0.2982     0.0244  0.000e+00
     15.101     9.7923 194.883472    280.048    9.18457   81.03485 2.4583e+00     0.8461    80.9351     0.3033     0.0241  0.000e+00
     15.145     9.7899 194.823225    279.981    9.17525   80.94787 2.4165e+00     0.8425    81.0075     0.2972     0.0248  0.000e+00
     15.192     9.7873 194.793103    279.958    9.14905   80.71185 2.4002e+00     0.8427    81.0042     0.3139     0.0243  0.000e+00
     15.238     9.7833 194.702732    279.861    9.11649   80.41702 2.3684e+00     0.8459    80.9384     0.3148     0.0241  0.000e+00
     15.284     9.7780 194.672612    279.860    9.07894   80.07564 2.3456e+00     0.8421    81.0157     0.3118     0.0240  0.000e+00
     15.324     9.7728 194.702741    279.945    9.05921   79.89181 2.3200e+00     0.8437    80.9844     0.3031     0.0238  0.000e+00
     15.356     9.7692 194.793117    280.105    9.03987   79.71446 2.2910e+00     0.8460    80.9367     0.2966     0.0239  0.000e+00
     15.383     9.7694 194.823242    280.146    9.03435   79.66626 2.2784e+00     0.8488    80.8808     0.3230     0.0228  0.000e+00
     15.410     9.7723 194.823241    280.122    9.03536   79.68070 2.2627e+00     0.8555    80.7443     0.3388     0.0230  0.000e+00
     15.436     9.7742 194.823240    280.107    9.03315   79.66484 2.2412e+00     0.8550    80.7558     0.3434     0.0233  0.000e+00
     15.473     9.7742 194.762992    280.020    9.01694   79.52182 2.2245e+00     0.8447    80.9630     0.3287     0.0230  0.000e+00
     15.528     9.7709 194.672621    279.917    8.99308   79.30509 2.1701e+00     0.8508    80.8397     0.2988     0.0233  0.000e+00
     15.590     9.7647 194.552128    279.794    8.96082   79.00912 2.1303e+00     0.8567    80.7212     0.2761     0.0237  0.000e+00
     15.662     9.7583 194.522010    279.802    8.93015   78.72654 2.1062e+00     0.8490    80.8759     0.3067     0.0230  0.000e+00
     15.725     9.7527 194.491890    279.804    8.90651   78.50781 2.0660e+00     0.8411    81.0371     0.3259     0.0221  0.000e+00
     15.776     9.7500 194.582266    279.956    8.91518   78.57922 2.0337e+00     0.8343    81.1736     0.3523     0.0227  0.000e+00
     15.812     9.7504 194.883512    280.386    8.94446   78.83821 2.0143e+00     0.8461    80.9351     0.3333     0.0230  0.000e+00
     15.831     9.7531 195.094385    280.667    8.97004   79.06881 2.0143e+00     0.8410    81.0387     0.3141     0.0231  0.000e+00
     15.844     9.7510 195.124512    280.727    9.00305   79.35588 2.0091e+00     0.8410    81.0387     0.2925     0.0244  0.000e+00
     15.865     9.7517 195.004011    280.549    9.01952   79.50231 1.9907e+00     0.8408    81.0420     0.2878     0.0243  0.000e+00
     15.900     9.7581 194.823259    280.237    9.01944   79.51358 1.9703e+00     0.8457    80.9433     0.2847     0.0240  0.000e+00
     15.947     9.7589 194.672636    280.014    9.00447   79.38299 1.9298e+00     0.8417    81.0239     0.2824     0.0244  0.000e+00
     16.008     9.7552 194.491894    279.784    8.97492   79.11554 1.8921e+00     0.8447    80.9630     0.2788     0.0242  0.000e+00
     16.068     9.7490 194.461774    279.790    8.95784   78.95339 1.8572e+00     0.8423    81.0124     0.2704     0.0241  0.000e+00
     16.122     9.7426 194.431655    279.798    8.94904   78.86396 1.8256e+00     0.8471    80.9137     0.2641     0.0228  0.000e+00
     16.157     9.7395 194.642528    280.127    8.97589   79.09464 1.8256e+00     0.8465    80.9268     0.2649     0.0224  0.000e+00
     16.184     9.7401 194.793151    280.339    9.01723   79.46026 1.8078e+00     0.8472    80.9120     0.2760     0.0221  0.000e+00
     16.206     9.7393 194.943776    280.562    9.06293   79.86137 1.8074e+00     0.8584    80.6867     0.2863     0.0219  0.000e+00
     16.231     9.7364 195.004028    280.672    9.10454   80.22263 1.7935e+00     0.8502    80.8528     0.3066     0.0221  0.000e+00
     16.263     9.7338 194.702782    280.260    9.12580   80.40483 1.7789e+00     0.8455    80.9466     0.3059     0.0225  0.000e+00
     16.303     9.7323 194.612411    280.142    9.11834   80.33627 1.7473e+00     0.8506    80.8446     0.2905     0.0227  0.000e+00
     16.351     9.7306 194.431667    279.895    9.09977   80.16950 1.7354e+00     0.8486    80.8841     0.2856     0.0231  0.000e+00
     16.404     9.7267 194.401546    279.883    9.06530   79.85841 1.6991e+00     0.8534    80.7870     0.3072     0.0238  0.000e+00
     16.461     9.7215 194.311179    279.795    9.03960   79.62207 1.6750e+00     0.8541    80.7739     0.3259     0.0251  0.000e+00
     16.520     9.7163 194.250935    279.750    9.02761   79.50677 1.6421e+00     0.8537    80.7804     0.3132     0.0240  0.000e+00
     16.572     9.7130 194.371434    279.950    9.03839   79.59552 1.6083e+00     0.8450    80.9565     0.3219     0.0233  0.000e+00
     16.613     9.7112 194.401560    280.008    9.06844   79.85684 1.5860e+00     0.8539    80.7772     0.3204     0.0221  0.000e+00
     16.647     9.7118 194.612430    280.307    9.09830   80.12084 1.5804e+00     0.8619    80.6159     0.2995     0.0208  0.000e+00
     16.673     9.7149 194.702802    280.413    9.12542   80.36550 1.5655e+00     0.8600    80.6538     0.3301     0.0218  0.000e+00
     16.699     9.7163 194.732926    280.444    9.14749   80.56270 1.5643e+00     0.8512    80.8314     0.3245     0.0230  0.000e+00
     16.735     9.7156 194.612429    280.276    9.15013   80.58465 1.5432e+00     0.8591    80.6719     0.3062     0.0234  0.000e+00
     16.779     9.7154 194.461809    280.061    9.14640   80.55123 1.5164e+00     0.8608    80.6390     0.3064     0.0235  0.000e+00
     16.833     9.7147 194.311190    279.850    9.12673   80.37659 1.5012e+00     0.8530    80.7952     0.2908     0.0235  0.000e+00
     16.892     9.7104 194.250946    279.798    9.12071   80.31541 1.4685e+00     0.8524    80.8068     0.3107     0.0244  0.000e+00
     16.945     9.7053 194.311198    279.926    9.12550   80.34786 1.4529e+00     0.8660    80.5337     0.2960     0.0243  0.000e+00
     16.985     9.7024 194.371448    280.036    9.15802   80.62873 1.4380e+00     0.8618    80.6176     0.3141     0.0240  0.000e+00
     17.017     9.7042 194.491944    280.195    9.19246   80.93539 1.4098e+00     0.8643    80.5666     0.3161     0.0237  0.000e+00
     17.047     9.7056 194.612441    280.357    9.22827   81.25348 1.3992e+00     0.8599    80.6571     0.3091     0.0230  0.000e+00
     17.071     9.7051 194.642566    280.405    9.25594   81.49612 1.4011e+00     0.8607    80.6406     0.3027     0.0226  0.000e+00
     17.101     9.7035 194.522071    280.244    9.25560   81.48997 1.3841e+00     0.8590    80.6735     0.2953     0.0230  0.000e+00
     17.136     9.7028 194.431699    280.120    9.23643   81.31984 1.3620e+00     0.8626    80.6011     0.2902     0.0230  0.000e+00
     17.176     9.7029 194.371451    280.032    9.19325   80.93988 1.3525e+00     0.8567    80.7212     0.2952     0.0229  0.000e+00
     17.222     9.7012 194.311205    279.959    9.13666   80.43826 1.3258e+00     0.8595    80.6636     0.3028     0.0232  0.000e+00
     17.269     9.6970 194.311209    279.993    9.07386   79.87750 1.3139e+00     0.8572    80.7114     0.2955     0.0231  0.000e+00
     17.317     9.6919 194.250965    279.947    9.02967   79.47900 1.2975e+00     0.8502    80.8512     0.3037     0.0228  0.000e+00
     17.360     9.6868 194.250969    279.988    9.00151   79.22150 1.2863e+00     0.8481    80.8939     0.3116     0.0233  0.000e+00
     17.402     9.6833 194.250972    280.017    9.01527   79.33604 1.2675e+00     0.8628    80.5978     0.3273     0.0234  0.000e+00
     17.446     9.6821 194.250974    280.026    9.02914   79.45583 1.2440e+00     0.8643    80.5666     0.3409     0.0246  0.000e+00
     17.496     9.6809 194.220851    279.993    9.04276   79.57332 1.2344e+00     0.8577    80.7015     0.3354     0.0240  0.000e+00
     17.545     9.6785 194.190730    279.968    9.05957   79.71686 1.2129e+00     0.8593    80.6686     0.3256     0.0227  0.000e+00
     17.595     9.6753 194.160609    279.951    9.06873   79.79136 1.2157e+00     0.8553    80.7492     0.3299     0.0223  0.000e+00
     17.646     9.6725 194.130488    279.930    9.07849   79.87184 1.1834e+00     0.8594    80.6653     0.3210     0.0220  0.000e+00
     17.687     9.6707 194.220861    280.075    9.08516   79.92721 1.1651e+00     0.8480    80.8956     0.3228     0.0227  0.000e+00
     17.723     9.6697 194.311234    280.213    9.09445   80.00715 1.1625e+00     0.8427    81.0042     0.3391     0.0246  0.000e+00
     17.753     9.6705 194.401606    280.337    9.11218   80.16466 1.1491e+00     0.8518    80.8199     0.3501     0.0246  0.000e+00
     17.781     9.6730 194.311233    280.187    9.13653   80.38351 1.1417e+00     0.8498    80.8610     0.3227     0.0236  0.000e+00
     17.814     9.6740 194.250985    280.092    9.16028   80.59444 1.1164e+00     0.8602    80.6505     0.3443     0.0237  0.000e+00
     17.850     9.6735 194.250986    280.096    9.18000   80.76689 1.1094e+00     0.8599    80.6554     0.3573     0.0240  0.000e+00
     17.889     9.6720 194.190740    280.021    9.18803   80.83467 1.0826e+00     0.8522    80.8117     0.3510     0.0244  0.000e+00
     17.932     9.6695 194.160619    279.998    9.19212   80.86584 1.0760e+00     0.8552    80.7508     0.3189     0.0244  0.000e+00
     17.975     9.6670 194.190745    280.061    9.20136   80.94234 1.0660e+00     0.8552    80.7508     0.3055     0.0240  0.000e+00
     18.019     9.6650 194.220871    280.121    9.19998   80.92637 1.0583e+00     0.8465    80.9268     0.3041     0.0234  0.000e+00
     18.064     9.6631 194.130502    280.006    9.20422   80.95997 1.0442e+00     0.8519    80.8183     0.3075     0.0238  0.000e+00
     18.109     9.6616 194.100380    279.975    9.21312   81.03550 1.0309e+00     0.8539    80.7772     0.3066     0.0248  0.000e+00
     18.155     9.6605 194.130505    280.027    9.21885   81.08378 1.0055e+00     0.8551    80.7525     0.3280     0.0245  0.000e+00
     18.197     9.6595 194.160630    280.078    9.22668   81.15072 1.0007e+00     0.8581    80.6916     0.3360     0.0228  0.000e+00
     18.235     9.6587 194.070260    279.954    9.21799   81.07279 9.9359e-01     0.8661    80.5320     0.3883     0.0227  0.000e+00
     18.274     9.6584 194.160632    280.088    9.21061   81.00721 9.7805e-01     0.8585    80.6834     0.3807     0.0233  0.000e+00
     18.310     9.6582 194.190757    280.133    9.19603   80.87858 9.7036e-01     0.8528    80.8002     0.3639     0.0220  0.000e+00
     18.348     9.6578 194.100386    280.005    9.19898   80.90383 9.6050e-01     0.8625    80.6044     0.3366     0.0220  0.000e+00
     18.387     9.6572 194.130511    280.054    9.19595   80.87601 9.4761e-01     0.8538    80.7788     0.3072     0.0225  0.000e+00
     18.432     9.6566 194.130512    280.058    9.20916   80.99101 9.3218e-01     0.8460    80.9367     0.3209     0.0234  0.000e+00
     18.481     9.6558 194.040143    279.935    9.23581   81.22382 9.2143e-01     0.8506    80.8446     0.3125     0.0231  0.000e+00
     18.531     9.6550 194.070268    279.985    9.26308   81.46203 9.0586e-01     0.8608    80.6390     0.3127     0.0241  0.000e+00
     18.583     9.6545 194.100393    280.032    9.30683   81.84596 8.8725e-01     0.8482    80.8923     0.3283     0.0246  0.000e+00
     18.629     9.6543 194.130518    280.077    9.34026   82.13947 8.7288e-01     0.8538    80.7788     0.3301     0.0238  0.000e+00
     18.672     9.6542 194.100395    280.035    9.36277   82.33722 8.6662e-01     0.8631    80.5913     0.3315     0.0225  0.000e+00
     18.711     9.6545 194.130519    280.076    9.37480   82.44358 8.5156e-01     0.8604    80.6456     0.3560     0.0220  0.000e+00
     18.746     9.6548 194.100396    280.029    9.37422   82.43917 8.4132e-01     0.8580    80.6949     0.3843     0.0226  0.000e+00
     18.778     9.6554 194.130520    280.068    9.37637   82.45923 8.3542e-01     0.8613    80.6275     0.3905     0.0231  0.000e+00
     18.810     9.6556 194.160644    280.110    9.36329   82.34449 8.3869e-01     0.8600    80.6538     0.3577     0.0230  0.000e+00
     18.844     9.6555 194.130521    280.067    9.36206   82.33356 8.1557e-01     0.8493    80.8709     0.3247     0.0225  0.000e+00
     18.877     9.6550 194.040151    279.941    9.36286   82.33954 8.0524e-01     0.8544    80.7673     0.3003     0.0222  0.000e+00
     18.913     9.6543 194.130523    280.077    9.37223   82.42067 7.9645e-01     0.8512    80.8314     0.3007     0.0227  0.000e+00
     18.951     9.6537 194.100400    280.039    9.37963   82.48447 7.8742e-01     0.8502    80.8512     0.3020     0.0230  0.000e+00
     18.990     9.6532 194.070277    279.999    9.39408   82.61070 7.8279e-01     0.8508    80.8397     0.3291     0.0238  0.000e+00
     19.039     9.6528 194.070279    280.002    9.39739   82.63900 7.7620e-01     0.8535    80.7854     0.3317     0.0231  0.000e+00
     19.087     9.6526 194.040156    279.961    9.39900   82.65263 7.6376e-01     0.8457    80.9433     0.4136     0.0228  0.000e+00
     19.142     9.6523 194.010034    279.920    9.39066   82.57868 7.5105e-01     0.8527    80.8018     0.4048     0.0244  0.000e+00
     19.194     9.6520 194.040158    279.966    9.37078   82.40335 7.3547e-01     0.8568    80.7179     0.3648     0.0243  0.000e+00
     19.239     9.6518 194.070283    280.010    9.34053   82.13706 7.3678e-01     0.8648    80.5584     0.3770     0.0239  0.000e+00
     19.277     9.6525 194.160654    280.136    9.31381   81.90330 7.2376e-01     0.8592    80.6702     0.3964     0.0246  0.000e+00
     19.311     9.6543 194.130530    280.077    9.28758   81.67624 7.2018e-01     0.8530    80.7952     0.3638     0.0234  0.000e+00
     19.344     9.6562 194.100406    280.018    9.27205   81.54341 7.1150e-01     0.8493    80.8693     0.3287     0.0230  0.000e+00
     19.384     9.6571 194.130529    280.055    9.26407   81.47489 7.0488e-01     0.8489    80.8775     0.3368     0.0230  0.000e+00
     19.431     9.6567 194.040160    279.927    9.27280   81.55095 6.9734e-01     0.8576    80.7031     0.3204     0.0233  0.000e+00
     19.486     9.6556 194.070285    279.980    9.28806   81.68289 6.8194e-01     0.8490    80.8759     0.3447     0.0238  0.000e+00
     19.540     9.6539 194.040163    279.950    9.31473   81.91422 6.7922e-01     0.8516    80.8232     0.3407     0.0232  0.000e+00
     19.585     9.6532 194.070288    279.999    9.35011   82.22407 6.5254e-01     0.8585    80.6834     0.3199     0.0226  0.000e+00
     19.622     9.6536 194.070289    279.996    9.38168   82.50236 6.4874e-01     0.8535    80.7854     0.3103     0.0227  0.000e+00
     19.652     9.6546 194.160660    280.118    9.40327   82.69422 6.5293e-01     0.8493    80.8709     0.3023     0.0229  0.000e+00
     19.674     9.6571 194.251030    280.228    9.40948   82.75375 6.4019e-01     0.8475    80.9071     0.2891     0.0223  0.000e+00
     19.696     9.6583 194.220906    280.175    9.39752   82.65093 6.4070e-01     0.8471    80.9153     0.3674     0.0217  0.000e+00
     19.725     9.6581 194.130535    280.047    9.35416   82.26910 6.2023e-01     0.8439    80.9795     0.3845     0.0208  0.000e+00
     19.765     9.6575 194.100412    280.008    9.29690   81.76442 6.1910e-01     0.8499    80.8578     0.3579     0.0206  0.000e+00
     19.814     9.6561 194.070291    279.976    9.21622   81.05216 6.1772e-01     0.8431    80.9959     0.3210     0.0218  0.000e+00
     19.867     9.6544 194.040169    279.946    9.13618   80.34497 5.9825e-01     0.8408    81.0420     0.3239     0.0221  0.000e+00
     19.922     9.6529 194.010047    279.914    9.06431   79.71017 5.8406e-01     0.8442    80.9729     0.3129     0.0220  0.000e+00
     19.976     9.6521 194.010049    279.921    9.01423   79.26813 5.8287e-01     0.8574    80.7064     0.3448     0.0230  0.000e+00
     20.025     9.6518 194.070297    280.010    8.98314   78.99436 5.7249e-01     0.8555    80.7459     0.3334     0.0223  0.000e+00
     20.061     9.6524 194.100421    280.049    8.97255   78.90225 5.6435e-01     0.8521    80.8133     0.3836     0.0224  0.000e+00
     20.095     9.6540 194.070297    279.993    8.97559   78.93195 5.5757e-01     0.8404    81.0502     0.4209     0.0234  0.000e+00
     20.127     9.6558 194.100420    280.022    8.98688   79.03454 5.5780e-01     0.8482    80.8923     0.3986     0.0227  0.000e+00
     20.163     9.6565 194.130544    280.060    8.99642   79.11984 5.4803e-01     0.8501    80.8545     0.3752     0.0234  0.000e+00
     20.197     9.6560 194.070298    279.977    8.99859   79.13798 5.4175e-01     0.8523    80.8101     0.3773     0.0239  0.000e+00
     20.242     9.6548 194.040176    279.942    9.00458   79.18848 5.3775e-01     0.8537    80.7821     0.3557     0.0242  0.000e+00
     20.289     9.6532 194.070301    279.999    9.01158   79.24706 5.3564e-01     0.8536    80.7837     0.3322     0.0241  0.000e+00
     20.339     9.6518 194.040179    279.967    9.02887   79.39634 5.1702e-01     0.8498    80.8594     0.3355     0.0246  0.000e+00
     20.388     9.6507 194.010057    279.933    9.05228   79.60013 5.0871e-01     0.8381    81.0963     0.3584     0.0246  0.000e+00
     20.436     9.6499 194.010059    279.939    9.08676   79.90180 4.9719e-01     0.8555    80.7443     0.3581     0.0233  0.000e+00
     20.478     9.6494 194.070307    280.030    9.13068   80.28712 4.9750e-01     0.8617    80.6192     0.3273     0.0227  0.000e+00
     20.518     9.6493 194.040184    279.987    9.16605   80.59797 4.8700e-01     0.8489    80.8775     0.3342     0.0224  0.000e+00
     20.556     9.6493 194.010061    279.944    9.18712   80.78317 4.7950e-01     0.8424    81.0107     0.3278     0.0231  0.000e+00
     20.593     9.6495 194.040185    279.985    9.18841   80.79497 4.7950e-01     0.8537    80.7821     0.3098     0.0233  0.000e+00
     20.632     9.6494 194.070310    280.030    9.17003   80.63309 4.7350e-01     0.8570    80.7146     0.3059     0.0230  0.000e+00
     20.666     9.6493 194.010063    279.944    9.14090   80.37672 4.7220e-01     0.8551    80.7525     0.3065     0.0230  0.000e+00
     20.702     9.6490 194.070311    280.033    9.10974   80.10218 4.6696e-01     0.8477    80.9022     0.3003     0.0238  0.000e+00
     20.736     9.6486 194.010065    279.949    9.07618   79.80632 4.6206e-01     0.8486    80.8841     0.3207     0.0237  0.000e+00
     20.774     9.6484 194.010066    279.951    9.05030   79.57844 4.5594e-01     0.8485    80.8874     0.3306     0.0229  0.000e+00
     20.815     9.6482 194.070314    280.039    9.03776   79.46783 4.5392e-01     0.8568    80.7179     0.3354     0.0238  0.000e+00
     20.864     9.6478 194.010068    279.956    9.03614   79.45271 4.5114e-01     0.8544    80.7673     0.3317     0.0240  0.000e+00
     20.914     9.6472 194.010069    279.961    9.04162   79.49984 4.3585e-01     0.8537    80.7804     0.3739     0.0230  0.000e+00
     20.961     9.6470 194.040194    280.006    9.05387   79.60720 4.2527e-01     0.8496    80.8643     0.3697     0.0232  0.000e+00
     21.004     9.6468 194.010071    279.964    9.06371   79.69335 4.2929e-01     0.8590    80.6752     0.3737     0.0241  0.000e+00
     21.041     9.6470 194.040195    280.006    9.07256   79.77145 4.1186e-01     0.8568    80.7179     0.3973     0.0237  0.000e+00
     21.074     9.6477 194.070319    280.044    9.08280   79.86286 4.1874e-01     0.8651    80.5518     0.4051     0.0230  0.000e+00
     21.109     9.6489 194.040195    279.991    9.07339   79.78233 4.1938e-01     0.8633    80.5880     0.3740     0.0238  0.000e+00
     21.149     9.6494 194.010072    279.943    9.04984   79.57626 4.0533e-01     0.8615    80.6242     0.3876     0.0249  0.000e+00
     21.195     9.6492 194.040196    279.988    9.02212   79.33214 4.0002e-01     0.8661    80.5304     0.4089     0.0262  0.000e+00
     21.243     9.6486 194.010074    279.949    8.99740   79.11368 3.8592e-01     0.8644    80.5649     0.4175     0.0261  0.000e+00
     21.301     9.6479 193.949829    279.868    8.98077   78.96601 3.8072e-01     0.8751    80.3511     0.4066     0.0257  0.000e+00
     21.364     9.6468 193.949830    279.877    8.97461   78.90992 3.7075e-01     0.8828    80.1948     0.4674     0.0246  0.000e+00
     21.424     9.6459 193.949832    279.884    8.98546   79.00358 3.6218e-01     0.8959    79.9333     0.4639     0.0241  0.000e+00
     21.483     9.6453 194.010081    279.976    9.01645   79.27492 3.5939e-01     0.8902    80.0484     0.4081     0.0244  0.000e+00
     21.522     9.6453 194.070329    280.063    9.04725   79.54568 3.5875e-01     0.9067    79.7178     0.4510     0.0244  0.000e+00
     21.544     9.6464 194.220947    280.271    9.08587   79.88746 3.5041e-01     0.9000    79.8510     0.4495     0.0234  0.000e+00
     21.553     9.6468 194.311319    280.398    9.11431   80.13837 3.5519e-01     0.8976    79.8987     0.4257     0.0233  0.000e+00
     21.556     9.6479 194.371566    280.477    9.12395   80.22511 3.5487e-01     0.8819    80.2146     0.3984     0.0233  0.000e+00
     21.570     9.6507 194.251069    280.280    9.11272   80.13181 3.5049e-01     0.8984    79.8839     0.4164     0.0243  0.000e+00
     21.607     9.6535 194.100449    280.040    9.08814   79.92083 3.4963e-01     0.8925    80.0024     0.4119     0.0249  0.000e+00
     21.665     9.6565 194.010077    279.886    9.04125   79.51407 3.3970e-01     0.8948    79.9563     0.4222     0.0258  0.000e+00
     21.734     9.6553 194.010079    279.896    8.99871   79.13763 3.2902e-01     0.8986    79.8790     0.4231     0.0257  0.000e+00
     21.810     9.6507 193.949836    279.846    8.96578   78.83946 3.1999e-01     0.9039    79.7737     0.4363     0.0253  0.000e+00
     21.870     9.6468 194.010087    279.964    8.94826   78.67815 3.2035e-01     0.9178    79.4973     0.4617     0.0256  0.000e+00
     21.911     9.6444 194.070336    280.070    8.95226   78.70893 3.1573e-01     0.9180    79.4924     0.4744     0.0259  0.000e+00
     21.941     9.6435 194.190832    280.252    8.96151   78.78858 3.1009e-01     0.9247    79.3608     0.4749     0.0262  0.000e+00
     21.959     9.6418 194.251081    280.352    8.96692   78.83307 3.0278e-01     0.9343    79.1700     0.4371     0.0256  0.000e+00
     21.983     9.6402 194.251083    280.365    8.97095   78.86539 3.0368e-01     0.9265    79.3246     0.4086     0.0259  0.000e+00
     22.011     9.6394 194.160712    280.241    8.95386   78.71367 3.0804e-01     0.9350    79.1568     0.4208     0.0261  0.000e+00
     22.060     9.6395 194.070342    280.110    8.92713   78.47889 3.0924e-01     0.9275    79.3049     0.4463     0.0249  0.000e+00
     22.117     9.6390 194.010096    280.027    8.89708   78.21380 2.9478e-01     0.9394    79.0696     0.5041     0.0257  0.000e+00
     22.144     9.6360 194.190841    280.312    8.87166   77.98474 2.8429e-01     0.9536    78.7883     0.5661     0.0244  0.000e+00
     22.152     9.6324 194.220967    280.385    8.87926   78.04492 2.8482e-01     0.9618    78.6271     0.5754     0.0249  0.000e+00
     22.155     9.6313 194.130596    280.263    8.90855   78.30035 2.8889e-01     0.9449    78.9594     0.5606     0.0257  0.000e+00
     22.156     9.6313 194.100473    280.220    8.95059   78.66971 2.8085e-01     0.9516    78.8278     0.5808     0.0264  0.000e+00
     22.157     9.6311 194.070349    280.178    8.99107   79.02520 2.7941e-01     0.9485    78.8887     0.6117     0.0257  0.000e+00
     22.157     9.6301 194.040226    280.142    9.02901   79.35684 2.7901e-01     0.9555    78.7505     0.6007     0.0256  0.000e+00
     22.158     9.6267 194.070352    280.214    9.03915   79.43952 2.8382e-01     0.9459    78.9413     0.5457     0.0269  0.000e+00
     22.158     9.6233 194.040230    280.197    9.02327   79.29363 2.7336e-01     0.9325    79.2062     0.5003     0.0272  0.000e+00
     22.158     9.6199 194.070356    280.269    8.97833   78.89220 2.8542e-01     0.9230    79.3937     0.7987     0.0262  0.000e+00
     22.159     9.6152 194.070359    280.306    8.91850   78.35788 2.8283e-01     0.9117    79.6191     0.7701     0.0264  0.000e+00
     22.159     9.6102 194.040239    280.304    8.86001   77.83468 2.9159e-01     0.9379    79.0993     0.6683     0.0255  0.000e+00
