* Sea-Bird SBE19plus Data File:
* FileName = C:\Users\Steve Constant\Desktop\CHRP2017\CTD\raw\chp32017019.hex
* Software Version 1.59
* Temperature SN =  6337
* Conductivity SN =  6337
* System UpLoad Time = May 26 2017 12:30:00
* ds
* SBE 19plus V 2.5.2  SERIAL NO. 6337    26 May 2017 08:26:09
* vbatt = 12.1, vlith =  8.2, ioper =  61.3 ma, ipump =  48.3 ma,
* iext01 =   5.8 ma, iext2345 =  86.7 ma
* status = not logging
* number of scans to average = 1
* samples = 300534, free = 2560254, casts = 22
* mode = profile, minimum cond freq = 3154, pump delay = 40 sec
* autorun = no, ignore magnetic switch = no
* battery type = alkaline, battery cutoff =  7.5 volts
* pressure sensor = strain gauge, range = 160.0
* SBE 38 = no, WETLABS = no, OPTODE = no, SBE63 = no, Gas Tension Device = no
* Ext Volt 0 = yes, Ext Volt 1 = yes
* Ext Volt 2 = yes, Ext Volt 3 = yes
* Ext Volt 4 = yes, Ext Volt 5 = yes
* echo characters = yes
* output format = raw HEX

* S>
*
* SBE 19plus V 2.5.2  SERIAL NO. 6337    26 May 2017 08:26:47
* temperature:  13-Jan-17
*     TA0 = 1.295807e-03
*     TA1 = 2.588888e-04
*     TA2 = 9.706836e-08
*     TA3 = 1.382757e-07
*     TOFFSET = 0.000000e+00
* conductivity:  13-Jan-17
*     G = -1.015047e+00
*     H = 1.449340e-01
*     I = -4.359138e-04
*     J = 5.256769e-05
*     CPCOR = -9.570000e-08
*     CTCOR = 3.250000e-06
*     CSLOPE = 1.000000e+00
* pressure S/N = 2882551, range = 160 psia:  11-Jan-17
*     PA0 = -1.431544e-01
*     PA1 = 4.887645e-04
*     PA2 = -6.439018e-12
*     PTCA0 = 5.240819e+05
*     PTCA1 = -1.723854e+01
*     PTCA2 = 1.164354e-01
*     PTCB0 = 2.491288e+01
*     PTCB1 = -1.025000e-03
*     PTCB2 = 0.000000e+00
*     PTEMPA0 = -6.474687e+01
*     PTEMPA1 = 5.145625e+01
*     PTEMPA2 = -2.579592e-01
*     POFFSET = 0.000000e+00
* volt 0: offset = -4.766105e-02, slope = 1.249330e+00
* volt 1: offset = -4.904947e-02, slope = 1.248985e+00
* volt 2: offset = -4.772842e-02, slope = 1.248965e+00
* volt 3: offset = -4.803053e-02, slope = 1.249328e+00
* volt 4: offset = -4.743158e-02, slope = 1.248557e+00
* volt 5: offset = -4.724737e-02, slope = 1.251092e+00
*     EXTFREQSF = 9.999918e-01
* dh
* cast  19 23 May 2017 11:51:45 samples 294535 to 296411, avg = 1, stop = mag switch

* S>
# nquan = 12
# nvalues = 976                                   
# units = specified
# name 0 = depFM: Depth [fresh water, m]
# name 1 = tv290C: Temperature [ITS-90, deg C]
# name 2 = c0uS/cm: Conductivity [uS/cm]
# name 3 = specc: Specific Conductance [uS/cm]
# name 4 = sbeox0Mg/L: Oxygen, SBE 43 [mg/l]
# name 5 = sbeox0PS: Oxygen, SBE 43 [% saturation]
# name 6 = par: PAR/Irradiance, Biospherical/Licor
# name 7 = CStarAt0: Beam Attenuation, WET Labs C-Star [1/m]
# name 8 = CStarTr0: Beam Transmission, WET Labs C-Star [%]
# name 9 = chloroflTC0: Chlorophyll, Turner Cyclops [ug/l]
# name 10 = phycyflTC0: Phycocyanin, Turner Cyclops [RFU]
# name 11 = flag:  0.000e+00
# span 0 =     -0.290,     24.942                 
# span 1 =     8.8080,    17.7261                 
# span 2 =  10.534572, 228.526844                 
# span 3 =     12.399,    295.551                 
# span 4 =    6.99702,   10.78128                 
# span 5 =   60.68455,  103.11015                 
# span 6 = 1.8841e+00, 4.4448e+03                 
# span 7 =     0.2273,    55.2620                 
# span 8 =    -0.0087,    94.4767                 
# span 9 =     0.0000,     4.9157                 
# span 10 =     0.0000,     1.6281                
# span 11 = 0.0000e+00, 0.0000e+00                
# interval = seconds: 0.25
# start_time = May 23 2017 11:51:45 [Instrument's time stamp, header]
# bad_flag = -9.990e-29
# <Sensors count="9" >
#   <sensor Channel="1" >
#     <!-- Count, Temperature -->
#     <TemperatureSensor SensorID="58" >
#       <SerialNumber>6337</SerialNumber>
#       <CalibrationDate>13-Jan-17</CalibrationDate>
#       <A0>1.29580686e-003</A0>
#       <A1>2.58888790e-004</A1>
#       <A2>9.70683569e-008</A2>
#       <A3>1.38275720e-007</A3>
#       <Slope>1.00000000</Slope>
#       <Offset>0.0000</Offset>
#     </TemperatureSensor>
#   </sensor>
#   <sensor Channel="2" >
#     <!-- Frequency 0, Conductivity -->
#     <ConductivitySensor SensorID="3" >
#       <SerialNumber>6337</SerialNumber>
#       <CalibrationDate>13-Jan-17</CalibrationDate>
#       <UseG_J>1</UseG_J>
#       <!-- Cell const and series R are applicable only for wide range sensors. -->
#       <SeriesR>0.0000</SeriesR>
#       <CellConst>2000.0000</CellConst>
#       <ConductivityType>0</ConductivityType>
#       <Coefficients equation="0" >
#         <A>0.00000000e+000</A>
#         <B>0.00000000e+000</B>
#         <C>0.00000000e+000</C>
#         <D>0.00000000e+000</D>
#         <M>0.0</M>
#         <CPcor>-9.57000000e-008</CPcor>
#       </Coefficients>
#       <Coefficients equation="1" >
#         <G>-1.01504657e+000</G>
#         <H>1.44933984e-001</H>
#         <I>-4.35913838e-004</I>
#         <J>5.25676850e-005</J>
#         <CPcor>-9.57000000e-008</CPcor>
#         <CTcor>3.2500e-006</CTcor>
#         <!-- WBOTC not applicable unless ConductivityType = 1. -->
#         <WBOTC>0.00000000e+000</WBOTC>
#       </Coefficients>
#       <Slope>1.00000000</Slope>
#       <Offset>0.00000</Offset>
#     </ConductivitySensor>
#   </sensor>
#   <sensor Channel="3" >
#     <!-- Count, Pressure, Strain Gauge -->
#     <PressureSensor SensorID="46" >
#       <SerialNumber>6337</SerialNumber>
#       <CalibrationDate>11-Jan-17</CalibrationDate>
#       <PA0>-1.43154376e-001</PA0>
#       <PA1>4.88764480e-004</PA1>
#       <PA2>-6.43901847e-012</PA2>
#       <PTEMPA0>-6.47468750e+001</PTEMPA0>
#       <PTEMPA1>5.14562526e+001</PTEMPA1>
#       <PTEMPA2>-2.57959185e-001</PTEMPA2>
#       <PTCA0>5.24081949e+005</PTCA0>
#       <PTCA1>-1.72385379e+001</PTCA1>
#       <PTCA2>1.16435406e-001</PTCA2>
#       <PTCB0>2.49128750e+001</PTCB0>
#       <PTCB1>-1.02500000e-003</PTCB1>
#       <PTCB2>0.00000000e+000</PTCB2>
#       <Offset>0.000000</Offset>
#     </PressureSensor>
#   </sensor>
#   <sensor Channel="4" >
#     <!-- A/D voltage 0, Oxygen, SBE 43 -->
#     <OxygenSensor SensorID="38" >
#       <SerialNumber>2361</SerialNumber>
#       <CalibrationDate>20-Jan-17</CalibrationDate>
#       <Use2007Equation>1</Use2007Equation>
#       <CalibrationCoefficients equation="0" >
#         <!-- Coefficients for Owens-Millard equation. -->
#         <Boc>0.0000</Boc>
#         <Soc>0.0000e+000</Soc>
#         <offset>0.0000</offset>
#         <Pcor>0.00e+000</Pcor>
#         <Tcor>0.0000</Tcor>
#         <Tau>0.0</Tau>
#       </CalibrationCoefficients>
#       <CalibrationCoefficients equation="1" >
#         <!-- Coefficients for Sea-Bird equation - SBE calibration in 2007 and later. -->
#         <Soc>3.9698e-001</Soc>
#         <offset>-0.4986</offset>
#         <A>-3.9823e-003</A>
#         <B> 2.4447e-004</B>
#         <C>-3.3613e-006</C>
#         <D0> 2.5826e+000</D0>
#         <D1> 1.92634e-004</D1>
#         <D2>-4.64803e-002</D2>
#         <E> 3.6000e-002</E>
#         <Tau20> 1.0800</Tau20>
#         <H1>-3.3000e-002</H1>
#         <H2> 5.0000e+003</H2>
#         <H3> 1.4500e+003</H3>
#       </CalibrationCoefficients>
#     </OxygenSensor>
#   </sensor>
#   <sensor Channel="5" >
#     <!-- A/D voltage 1, Free -->
#   </sensor>
#   <sensor Channel="6" >
#     <!-- A/D voltage 2, PAR/Irradiance, Biospherical/Licor -->
#     <PAR_BiosphericalLicorChelseaSensor SensorID="42" >
#       <SerialNumber>70234</SerialNumber>
#       <CalibrationDate>11/29/16</CalibrationDate>
#       <M>1.00000000</M>
#       <B>0.00000000</B>
#       <CalibrationConstant>10917030568.00000000</CalibrationConstant>
#       <Multiplier>1.00000000</Multiplier>
#       <Offset>-0.09353959</Offset>
#     </PAR_BiosphericalLicorChelseaSensor>
#   </sensor>
#   <sensor Channel="7" >
#     <!-- A/D voltage 3, Transmissometer, WET Labs C-Star -->
#     <WET_LabsCStar SensorID="71" >
#       <SerialNumber>CST-484PR</SerialNumber>
#       <CalibrationDate>12/23/16</CalibrationDate>
#       <M>21.5610</M>
#       <B>-1.2721</B>
#       <PathLength>0.250</PathLength>
#     </WET_LabsCStar>
#   </sensor>
#   <sensor Channel="8" >
#     <!-- A/D voltage 4, Fluorometer, Turner Cyclops -->
#     <Fluorometer SensorID="68" >
#       <SerialNumber></SerialNumber>
#       <CalibrationDate></CalibrationDate>
#       <ScaleFactor>1.00000000e+000</ScaleFactor>
#       <Offset>0.00000000e+000</Offset>
#       <!-- 1 = C, Chlorophyll -->
#       <!-- 2 = R, Rhodamine -->
#       <!-- 3 = F, Fluorescein -->
#       <!-- 4 = P, Phycocyanin -->
#       <!-- 5 = E, Phycoerythrin -->
#       <!-- 6 = U, CDOM -->
#       <!-- 7 = O, CrudeOil -->
#       <!-- 8 = B, OpticalBrightness -->
#       <!-- 9 = T, Turbidity -->
#       <!-- 10 = G, Refined Fuels -->
#       <MeasuredParameter>4</MeasuredParameter>
#     </Fluorometer>
#   </sensor>
#   <sensor Channel="9" >
#     <!-- A/D voltage 5, Fluorometer, Turner Cyclops, 2 -->
#     <Fluorometer SensorID="68" >
#       <SerialNumber></SerialNumber>
#       <CalibrationDate></CalibrationDate>
#       <ScaleFactor>1.00000000e+000</ScaleFactor>
#       <Offset>0.00000000e+000</Offset>
#       <!-- 1 = C, Chlorophyll -->
#       <!-- 2 = R, Rhodamine -->
#       <!-- 3 = F, Fluorescein -->
#       <!-- 4 = P, Phycocyanin -->
#       <!-- 5 = E, Phycoerythrin -->
#       <!-- 6 = U, CDOM -->
#       <!-- 7 = O, CrudeOil -->
#       <!-- 8 = B, OpticalBrightness -->
#       <!-- 9 = T, Turbidity -->
#       <!-- 10 = G, Refined Fuels -->
#       <MeasuredParameter>1</MeasuredParameter>
#     </Fluorometer>
#   </sensor>
# </Sensors>
# datcnv_date = May 26 2017 13:03:37, 7.21d [datcnv_vars = 11]
# datcnv_in = C:\Users\Steve Constant\Desktop\CHRP2017\CTD\raw\CHRP4.hex C:\Users\Steve Constant\Desktop\CHRP2017\CTD\raw\SBE19plusV2_63372017.xmlcon
# datcnv_skipover = 0
# datcnv_ox_hysteresis_correction = yes
# datcnv_ox_tau_correction = yes
# file_type = ascii
*END*
     -0.288    17.7261  22.151256     25.920    9.00540   94.59888 4.2523e+03     0.3063    92.6277     0.0475     0.0000  0.000e+00
     -0.289    17.7232  21.105780     24.698    9.01757   94.72085 4.2561e+03     0.2273    94.4767     0.0402     0.0000  0.000e+00
     -0.288    17.7186  20.478521     23.967    9.02952   94.83722 4.2576e+03     0.2822    93.1870     0.0374     0.0000  0.000e+00
     -0.289    17.7101  20.030491     23.447    9.03969   94.92733 4.2628e+03     0.3465    91.7032     0.0349     0.0000  0.000e+00
     -0.288    17.6990  19.612339     22.964    9.05199   95.03447 4.2591e+03     0.3516    91.5848     0.0349     0.0000  0.000e+00
     -0.288    17.6902  19.313664     22.618    9.05989   95.10008 4.2591e+03     0.3240    92.2198     0.0309     0.0000  0.000e+00
     -0.288    17.6822  19.224063     22.518    9.07042   95.19489 4.2613e+03     0.3077    92.5948     0.0343     0.0047  0.000e+00
     -0.288    17.6753  19.164329     22.451    9.07691   95.24939 4.2621e+03     0.3125    92.4846     0.0376     0.0034  0.000e+00
     -0.289    17.6695  19.224064     22.524    9.08132   95.28437 4.2576e+03     0.3226    92.2510     0.0402     0.0048  0.000e+00
     -0.290    17.6627  19.224064     22.528    9.08186   95.27666 4.2576e+03     0.3246    92.2066     0.0403     0.0082  0.000e+00
     -0.288    17.6547  18.955262     22.217    9.08448   95.28831 4.2621e+03     0.3208    92.2938     0.0366     0.0112  0.000e+00
     -0.289    17.6466  18.596864     21.801    9.08590   95.28713 4.2636e+03     0.3179    92.3612     0.0311     0.0151  0.000e+00
     -0.289    17.6383  18.417667     21.595    9.08693   95.28160 4.2613e+03     0.3180    92.3579     0.0301     0.0156  0.000e+00
     -0.289    17.6322  18.417668     21.599    9.08531   95.25253 4.2583e+03     0.3186    92.3431     0.0307     0.0056  0.000e+00
     -0.289    17.6271  18.537132     21.741    9.08822   95.27301 4.2509e+03     0.3196    92.3218     0.0285     0.0066  0.000e+00
     -0.289    17.6217  18.507266     21.709    9.08561   95.23518 4.2523e+03     0.3188    92.3398     0.0262     0.0040  0.000e+00
     -0.289    17.6133  18.298205     21.468    9.08724   95.23559 4.2553e+03     0.3185    92.3464     0.0283     0.0024  0.000e+00
     -0.290    17.6044  18.059280     21.192    9.09343   95.28289 4.2628e+03     0.3183    92.3514     0.0327     0.0027  0.000e+00
     -0.290    17.5994  17.850223     20.949    9.09351   95.27391 4.2248e+03     0.3187    92.3415     0.0351     0.0053  0.000e+00
     -0.289    17.5967  17.671033     20.740    9.09506   95.28477 4.1622e+03     0.3184    92.3497     0.0349     0.0053  0.000e+00
     -0.289    17.5961  17.402250     20.425    9.08947   95.22501 1.9451e+03     0.3189    92.3366     0.0369     0.0038  0.000e+00
     -0.289    17.5954  17.133471     20.110    9.08803   95.20829 9.0011e+02     0.3179    92.3612     0.0356     0.0024  0.000e+00
     -0.290    17.5946  17.850223     20.952    9.09392   95.26881 9.0582e+02     0.3181    92.3547     0.0376     0.0000  0.000e+00
     -0.289    17.5946  19.881157     23.335    9.08603   95.18666 9.2952e+02     0.3174    92.3711     0.0376     0.0000  0.000e+00
     -0.289    17.5951  21.165529     24.843    9.08932   95.22243 9.2740e+02     0.3166    92.3908     0.0361     0.0000  0.000e+00
     -0.289    17.5968  21.105789     24.771    9.08752   95.20682 9.3280e+02     0.3169    92.3826     0.0360     0.0041  0.000e+00
     -0.289    17.5999  21.852552     25.646    9.08784   95.21652 9.0503e+02     0.3172    92.3760     0.0368     0.0034  0.000e+00
     -0.289    17.6034  22.360366     26.240    9.08312   95.17418 8.6143e+02     0.3175    92.3695     0.0357     0.0000  0.000e+00
     -0.289    17.6066  22.599342     26.518    9.08822   95.23392 8.4732e+02     0.3179    92.3612     0.0346     0.0000  0.000e+00
     -0.290    17.6082  22.778575     26.728    9.08652   95.21940 8.4732e+02     0.3176    92.3678     0.0369     0.0024  0.000e+00
     -0.289    17.6098  22.360365     26.236    9.08617   95.21865 8.4822e+02     0.3174    92.3711     0.0374     0.0011  0.000e+00
     -0.289    17.6127  20.657743     24.237    9.08561   95.21791 9.6990e+02     0.3172    92.3760     0.0359     0.0011  0.000e+00
     -0.289    17.6158  19.552609     22.938    9.08534   95.22095 1.0156e+03     0.3161    92.4024     0.0390     0.0095  0.000e+00
     -0.289    17.6180  26.751994     31.383    9.08636   95.23794 1.2491e+03     0.3149    92.4287     0.0393     0.0169  0.000e+00
     -0.290    17.6156  31.473306     36.923    9.09159   95.28933 1.1925e+03     0.3149    92.4287     0.0369     0.0134  0.000e+00
     -0.290    17.6134  36.046252     42.290    9.09004   95.27016 1.2013e+03     0.3154    92.4172     0.0333     0.0067  0.000e+00
     -0.289    17.6150  40.351138     47.339    9.08553   95.22722 1.2030e+03     0.3150    92.4270     0.0775     0.0077  0.000e+00
     -0.288    17.6140  34.731051     40.747    9.08545   95.22276 4.2278e+03     0.3149    92.4287     0.6143     0.0104  0.000e+00
     -0.288    17.5979  32.937734     38.657    9.08644   95.20113 4.2404e+03     0.3146    92.4353     1.1798     0.0556  0.000e+00
     -0.288    17.5765  36.614210     42.994    9.09427   95.24195 4.2063e+03     0.3147    92.4336     1.4144     0.1235  0.000e+00
     -0.289    17.5724  43.909341     51.565    9.09498   95.24338 4.1527e+03     0.3146    92.4353     1.0713     0.0906  0.000e+00
     -0.290    17.5756  36.225608     42.538    9.09543   95.25223 4.1280e+03     0.3146    92.4369     0.7141     0.0600  0.000e+00
     -0.289    17.5802  28.216085     33.130    9.09741   95.27974 4.1185e+03     0.3151    92.4254     0.4672     0.0441  0.000e+00
     -0.289    17.5849  24.541126     28.811    9.09631   95.27645 4.1048e+03     0.3144    92.4418     0.3031     0.0370  0.000e+00
     -0.289    17.5894  22.479855     26.389    9.09342   95.25448 4.2174e+03     0.3145    92.4385     0.2129     0.0362  0.000e+00
     -0.289    17.5938  21.494103     25.229    9.09769   95.30752 4.2278e+03     0.3144    92.4402     0.1389     0.1175  0.000e+00
     -0.289    17.5979  19.433140     22.808    9.09696   95.30739 4.2613e+03     0.3140    92.4501     0.1133     0.0000  0.000e+00
     -0.289    17.6017  18.776065     22.035    9.09652   95.31018 4.1636e+03     0.3145    92.4385     0.0878     0.0000  0.000e+00
     -0.289    17.6052  19.731817     23.154    9.09421   95.29307 2.9045e+03     0.3152    92.4221     0.0685     0.0000  0.000e+00
     -0.288    17.6084  20.179840     23.678    9.09402   95.29760 2.3710e+03     0.3149    92.4287     0.0902     0.0000  0.000e+00
     -0.289    17.6114  19.881156     23.326    9.09330   95.29586 3.1445e+03     0.3152    92.4221     0.4198     0.0000  0.000e+00
     -0.288    17.6140  19.044865     22.344    9.09051   95.27146 4.1113e+03     0.3156    92.4139     0.6119     0.0000  0.000e+00
     -0.288    17.6167  18.955264     22.237    9.08493   95.21827 4.1222e+03     0.3151    92.4254     0.5598     0.0000  0.000e+00
     -0.288    17.6193  18.865664     22.131    9.07700   95.14035 4.1287e+03     0.3160    92.4040     0.3926     0.0000  0.000e+00
     -0.289    17.6218  18.596865     21.814    9.07726   95.14782 4.1070e+03     0.3156    92.4139     0.2609     0.0082  0.000e+00
     -0.288    17.6244  18.656598     21.883    9.07145   95.09202 4.1113e+03     0.3159    92.4073     0.1817     0.0517  0.000e+00
     -0.288    17.6267  18.746197     21.987    9.06496   95.02851 4.1258e+03     0.3155    92.4155     0.3751     0.0000  0.000e+00
     -0.288    17.6288  18.865663     22.126    9.06462   95.02915 4.0919e+03     0.3149    92.4287     0.2916     0.0647  0.000e+00
     -0.288    17.6311  18.955263     22.230    9.05945   94.97946 4.1019e+03     0.3157    92.4106     0.2000     0.2983  0.000e+00
     -0.288    17.6332  19.433137     22.789    9.06089   94.99884 4.0962e+03     0.3156    92.4122     0.1265     0.3567  0.000e+00
     -0.288    17.6356  19.642211     23.033    9.05865   94.97996 4.0854e+03     0.3150    92.4270     0.0914     0.2966  0.000e+00
     -0.288    17.6378  19.970759     23.417    9.05201   94.91483 4.0653e+03     0.3156    92.4122     0.0737     0.0144  0.000e+00
     -0.288    17.6396  20.299313     23.801    9.05212   94.91976 4.0425e+03     0.3169    92.3826     0.0607     0.0000  0.000e+00
     -0.288    17.6417  20.149970     23.625    9.04841   94.88479 4.0241e+03     0.3174    92.3711     0.0512     0.0000  0.000e+00
     -0.288    17.6433  20.239575     23.729    9.04981   94.90265 4.0192e+03     0.3158    92.4089     0.0452     0.2156  0.000e+00
     -0.288    17.6448  20.926567     24.533    9.04732   94.87978 3.8485e+03     0.3139    92.4534     0.0419     0.3203  0.000e+00
     -0.288    17.6463  20.747349     24.323    9.04723   94.88159 3.9092e+03     0.3143    92.4435     0.0406     0.0000  0.000e+00
     -0.288    17.6480  21.613581     25.337    9.03969   94.80608 3.8316e+03     0.3147    92.4336     0.0401     0.0000  0.000e+00
     -0.288    17.6496  21.195396     24.846    9.04224   94.83579 3.8968e+03     0.3149    92.4287     0.0376     0.0000  0.000e+00
     -0.288    17.6507  20.359050     23.865    9.04540   94.87084 3.8961e+03     0.3133    92.4665     0.0364     0.0000  0.000e+00
     -0.288    17.6520  19.373401     22.709    9.03956   94.81204 3.9043e+03     0.3135    92.4616     0.0384     0.0188  0.000e+00
     -0.288    17.6532  19.313667     22.638    9.04182   94.83797 3.9749e+03     0.3127    92.4797     0.0397     1.1154  0.000e+00
     -0.288    17.6545  19.283799     22.602    9.04360   94.85925 3.9513e+03     0.3133    92.4665     0.0388     1.6281  0.000e+00
     -0.288    17.6556  18.805928     22.042    9.04407   94.86628 3.9735e+03     0.3139    92.4534     0.0384     1.3086  0.000e+00
     -0.288    17.6568  18.776061     22.006    9.04303   94.85764 3.9882e+03     0.3142    92.4451     0.0386     0.8558  0.000e+00
     -0.288    17.6576  18.298202     21.446    9.04299   94.85863 3.9861e+03     0.3141    92.4484     0.0370     0.5139  0.000e+00
     -0.288    17.6589  18.148874     21.270    9.03861   94.81509 4.0227e+03     0.3139    92.4534     0.0209     0.3103  0.000e+00
     -0.288    17.6600  17.671029     20.709    9.03415   94.77048 4.0418e+03     0.3141    92.4484     0.0771     0.0026  0.000e+00
     -0.288    17.6613  17.969681     21.059    9.03348   94.76599 4.0468e+03     0.3139    92.4517     0.0947     0.0000  0.000e+00
     -0.288    17.6626  18.298202     21.443    9.03507   94.78530 4.0440e+03     0.3139    92.4534     0.1495     0.0000  0.000e+00
     -0.288    17.6638  18.059277     21.163    9.03419   94.77844 4.0632e+03     0.3126    92.4830     0.1949     0.0000  0.000e+00
     -0.288    17.6654  17.611299     20.637    9.03510   94.79090 4.0725e+03     0.3139    92.4534     0.3480     0.0000  0.000e+00
     -0.288    17.6665  16.894556     19.796    9.03411   94.78249 4.0675e+03     0.3132    92.4698     0.5078     0.0000  0.000e+00
     -0.288    17.6678  16.297289     19.096    9.03139   94.75648 4.0539e+03     0.3134    92.4632     0.7461     0.0000  0.000e+00
     -0.288    17.6689  15.819488     18.536    9.03434   94.78933 4.0675e+03     0.3139    92.4517     0.7496     0.0000  0.000e+00
     -0.289    17.6703  15.401422     18.045    9.03661   94.81576 4.0603e+03     0.3144    92.4418     0.6207     0.0000  0.000e+00
     -0.288    17.6712  15.102808     17.695    9.03397   94.78967 4.0511e+03     0.3143    92.4435     0.4323     0.1649  0.000e+00
     -0.288    17.6721  14.893781     17.450    9.03145   94.76503 4.0454e+03     0.3147    92.4336     0.2849     1.0871  0.000e+00
     -0.288    17.6733  14.774338     17.309    9.02844   94.73576 4.0475e+03     0.3148    92.4320     0.1971     0.5328  0.000e+00
     -0.287    17.6742  14.595175     17.099    9.02878   94.74091 4.0347e+03     0.3137    92.4583     0.1427     0.3293  0.000e+00
     -0.288    17.6750  14.445873     16.924    9.02977   94.75301 4.0362e+03     0.3141    92.4468     0.0237     0.1477  0.000e+00
     -0.288    17.6761  14.296573     16.748    9.02840   94.74073 4.0355e+03     0.3137    92.4566     0.0621     0.5181  0.000e+00
     -0.288    17.6768  14.147273     16.573    9.02648   94.72178 4.0511e+03     0.3134    92.4632     0.5866     0.9408  0.000e+00
     -0.288    17.6778  14.027835     16.433    9.02677   94.72683 4.0454e+03     0.3133    92.4665     0.9233     0.8405  0.000e+00
     -0.288    17.6785  13.968116     16.363    9.02742   94.73498 4.0440e+03     0.3125    92.4846     0.7467     0.0000  0.000e+00
     -0.288    17.6791  13.729241     16.083    9.02997   94.76297 4.0589e+03     0.3138    92.4550     1.0968     0.0000  0.000e+00
     -0.288    17.6795  13.669523     16.013    9.02819   94.74498 4.0546e+03     0.3128    92.4780     1.3809     0.0000  0.000e+00
     -0.288    17.6801  13.490369     15.802    9.02849   94.74937 4.0475e+03     0.3133    92.4665     1.6526     0.3445  0.000e+00
     -0.288    17.6808  13.341076     15.627    9.02965   94.76275 4.0454e+03     0.3129    92.4747     1.7066     0.5309  0.000e+00
     -0.288    17.6816  13.281359     15.557    9.02531   94.71871 4.0262e+03     0.3138    92.4550     1.1653     0.3593  0.000e+00
     -0.288    17.6820  13.221642     15.487    9.02729   94.74044 4.0044e+03     0.3124    92.4879     0.8009     0.2640  0.000e+00
     -0.288    17.6824  13.042493     15.277    9.02635   94.73114 4.0164e+03     0.3128    92.4780     0.7655     0.0000  0.000e+00
     -0.288    17.6824  12.982776     15.207    9.02589   94.72623 3.9981e+03     0.3127    92.4813     0.5460     0.0000  0.000e+00
     -0.288    17.6825  12.982776     15.207    9.02648   94.73272 3.9917e+03     0.3134    92.4632     0.3629     0.0000  0.000e+00
     -0.288    17.6830  12.923060     15.137    9.02296   94.69677 4.0051e+03     0.3127    92.4813     0.2406     0.0000  0.000e+00
     -0.288    17.6835  12.803629     14.997    9.02563   94.72568 4.0227e+03     0.3122    92.4912     0.1568     0.0000  0.000e+00
     -0.288    17.6847  12.773771     14.961    9.02404   94.71138 3.9450e+03     0.3120    92.4961     0.4500     0.0016  0.000e+00
     -0.288    17.6860  12.654341     14.821    9.02371   94.71038 3.8907e+03     0.3129    92.4764     0.7619     0.2780  0.000e+00
     -0.288    17.6868  12.564768     14.716    9.02329   94.70749 3.6496e+03     0.3129    92.4747     0.9525     0.4842  0.000e+00
     -0.288    17.6872  12.475196     14.611    9.02350   94.71043 3.3569e+03     0.3133    92.4665     0.9001     0.5916  0.000e+00
     -0.288    17.6871  12.355767     14.471    9.02527   94.72885 3.0849e+03     0.3127    92.4813     0.6157     0.6489  0.000e+00
     -0.288    17.6873  12.355767     14.471    9.02279   94.70328 2.4326e+03     0.3138    92.4550     0.5795     1.2456  0.000e+00
     -0.288    17.6876  12.296053     14.401    9.02567   94.73410 2.2572e+03     0.3133    92.4665     0.7880     1.0856  0.000e+00
     -0.288    17.6878  12.236339     14.331    9.02055   94.68061 2.8978e+03     0.3129    92.4747     0.6918     0.8731  0.000e+00
     -0.288    17.6877  12.116912     14.191    9.02600   94.73769 3.6158e+03     0.3125    92.4846     0.5964     0.6891  0.000e+00
     -0.288    17.6875  12.027342     14.086    9.02290   94.70463 4.0079e+03     0.3134    92.4632     0.4120     0.5557  0.000e+00
     -0.288    17.6872  11.967629     14.016    9.02105   94.68472 4.0135e+03     0.3130    92.4731     0.4202     0.1917  0.000e+00
     -0.288    17.6870  11.967629     14.016    9.01837   94.65619 4.0185e+03     0.3144    92.4402     0.5225     0.0000  0.000e+00
     -0.288    17.6868  11.907916     13.947    9.01851   94.65711 4.0298e+03     0.3139    92.4534     0.3866     0.0000  0.000e+00
     -0.288    17.6864  11.818346     13.842    9.01960   94.66783 4.0425e+03     0.3135    92.4616     0.2676     0.0000  0.000e+00
     -0.288    17.6861  11.728778     13.737    9.02254   94.69820 4.0326e+03     0.3136    92.4599     0.1830     0.1906  0.000e+00
     -0.287    17.6859  11.669065     13.667    9.02285   94.70094 4.0618e+03     0.3131    92.4714     0.1255     0.3888  0.000e+00
     -0.288    17.6855  11.669065     13.667    9.02238   94.69525 4.0711e+03     0.3128    92.4780     0.0895     0.8309  0.000e+00
     -0.288    17.6852  11.728778     13.737    9.02157   94.68613 4.0284e+03     0.3124    92.4879     0.0584     0.7381  0.000e+00
     -0.288    17.6845  11.609353     13.598    9.02143   94.68328 4.0319e+03     0.3134    92.4632     0.0517     0.5550  0.000e+00
     -0.288    17.6840  11.609353     13.598    9.02128   94.68081 4.0291e+03     0.3138    92.4550     0.0147     0.5302  0.000e+00
     -0.288    17.6838  11.609353     13.598    9.02579   94.72768 4.0128e+03     0.3144    92.4418     0.0447     0.5500  0.000e+00
     -0.288    17.6836  11.609353     13.598    9.02355   94.70384 4.0192e+03     0.3134    92.4632     0.0000     0.3867  0.000e+00
     -0.288    17.6841  11.549641     13.528    9.01953   94.66250 4.0333e+03     0.3144    92.4418     0.0000     1.5154  0.000e+00
     -0.288    17.6850  11.460074     13.423    9.02498   94.72139 4.0461e+03     0.3124    92.4879     0.0000     1.5937  0.000e+00
     -0.288    17.6852  11.400362     13.353    9.02214   94.69200 4.0840e+03     0.3123    92.4895     0.0000     0.8398  0.000e+00
     -0.288    17.6846  11.340651     13.283    9.02006   94.66893 4.1229e+03     0.3127    92.4813     0.0000     0.3701  0.000e+00
     -0.288    17.6827  11.280940     13.214    9.02248   94.69066 4.1128e+03     0.3130    92.4731     0.1415     0.8589  0.000e+00
     -0.288    17.6812  11.251084     13.179    9.02200   94.68265 4.1439e+03     0.3127    92.4813     0.2764     1.3693  0.000e+00
     -0.288    17.6805  11.280940     13.214    9.01706   94.62965 4.1338e+03     0.3122    92.4928     0.2474     1.3049  0.000e+00
     -0.288    17.6798  11.310796     13.249    9.02151   94.67492 4.1070e+03     0.3127    92.4797     0.3008     0.6805  0.000e+00
     -0.287    17.6789  11.221229     13.145    9.02196   94.67779 4.0897e+03     0.3120    92.4961     0.2985     0.0000  0.000e+00
     -0.288    17.6774  11.161518     13.075    9.02141   94.66906 4.0818e+03     0.3123    92.4895     0.2182     0.0000  0.000e+00
     -0.288    17.6764  11.101808     13.006    9.01893   94.64117 4.0589e+03     0.3120    92.4961     0.1552     0.0000  0.000e+00
     -0.288    17.6752  11.042097     12.936    9.02135   94.66408 4.0532e+03     0.3122    92.4928     0.1136     0.0000  0.000e+00
     -0.287    17.6707  10.982387     12.867    9.02326   94.67540 4.0618e+03     0.3117    92.5027     0.0859     0.0000  0.000e+00
     -0.288    17.6697  10.952532     12.833    9.02274   94.66785 4.0911e+03     0.3126    92.4830     0.0636     0.0000  0.000e+00
     -0.288    17.6697  10.862967     12.728    9.02396   94.68080 4.0911e+03     0.3122    92.4928     0.0507     0.0000  0.000e+00
     -0.279    17.6625  10.803258     12.660    9.02272   94.65362 4.1113e+03     0.3124    92.4879     0.0472     0.3560  0.000e+00
     -0.263    17.4758  10.534572     12.399    9.05971   94.67567 4.1041e+03     0.3119    92.4994     0.0423     0.4363  0.000e+00
     -0.252    16.4819  12.296101     14.820    9.23253   94.50063 4.0962e+03     0.3129    92.4747     0.0443     0.2762  0.000e+00
     -0.238    15.4888  14.087654     17.395    9.42077   94.41638 4.0947e+03     0.3137    92.4583     0.0455     0.0787  0.000e+00
     -0.223    14.8232  20.180023     25.335    9.54598   94.31174 4.0883e+03     0.3140    92.4501     0.0471     0.0238  0.000e+00
     -0.203    14.4550  71.379884     90.449    9.61846   94.28722 4.0639e+03     0.3149    92.4303     0.0475     0.0092  0.000e+00
     -0.181    14.2337 117.575705    149.827    9.65801   94.23447 4.0554e+03     0.3151    92.4237     0.0465     0.0078  0.000e+00
     -0.172    14.0625 122.258112    156.477    9.69171   94.21099 4.0482e+03     0.3171    92.3793     0.0439     0.0107  0.000e+00
     -0.174    13.9440 118.986409    152.753    9.71774   94.21767 4.0575e+03     0.3166    92.3892     0.0426     0.0141  0.000e+00
     -0.151    13.8770 149.292547    191.990    9.72745   94.18363 4.0596e+03     0.3177    92.3645     0.0388     0.0179  0.000e+00
     -0.107    13.8099 224.966589    289.807    9.74445   94.23571 4.0746e+03     2.8474    49.0731     0.0404     0.0192  0.000e+00
     -0.090    13.7445 222.100864    286.598    9.75509   94.20195 4.0482e+03     3.0173    47.0333     0.0410     0.0146  0.000e+00
     -0.097    13.6945 221.467466    286.150    9.76500   94.19354 4.0270e+03     2.9667    47.6321     0.0390     0.0224  0.000e+00
     -0.128    13.6578 228.526844    295.551    9.77552   94.22131 4.0298e+03     2.1620    58.2456     0.0313     0.0239  0.000e+00
     -0.154    13.6390 215.556391    278.913    9.77986   94.21924 4.0418e+03     1.8588    62.8319     0.0317     0.0259  0.000e+00
     -0.154    13.8201 129.103555    166.270    9.74266   94.20571 4.0468e+03     2.5890    52.3483     0.0368     0.0230  0.000e+00
     -0.125    14.1241 227.168746    290.293    9.67557   94.21801 4.0227e+03     1.2383    73.3763     0.0439     0.0183  0.000e+00
     -0.083    14.2908 226.384185    288.063    9.64250   94.23854 4.0072e+03     7.3196    16.0432     0.0459     0.0171  0.000e+00
     -0.030    14.2351 219.989145    280.323    9.65573   94.25084 3.9966e+03    11.0932     6.2455     0.0513     0.0153  0.000e+00
      0.044    14.1030 216.340099    276.605    9.68411   94.25378 4.0058e+03    14.9361     2.3897     0.0502     0.0149  0.000e+00
      0.143    13.9597 213.988202    274.604    9.71054   94.21375 4.0213e+03     1.9524    61.3793     0.0478     0.0192  0.000e+00
      0.229    13.7717 213.355148    275.119    9.75145   94.22009 4.0164e+03     0.7511    82.8811     0.0474     0.0277  0.000e+00
      0.300    13.6022 213.023606    275.898    9.80961   94.42830 3.9402e+03     0.5857    86.3800     0.0483     0.0284  0.000e+00
      0.365    13.4870 213.626712    277.507    9.88178   94.88118 2.3819e+03     0.5478    87.2009     0.0471     0.0288  0.000e+00
      0.429    13.4399 214.320246    278.749    9.95850   95.51845 2.0901e+03     0.5579    86.9804     0.0447     0.0267  0.000e+00
      0.498    13.4140 215.043942    279.880   10.04837   96.32532 1.7110e+03     0.5428    87.3094     0.0445     0.0227  0.000e+00
      0.572    13.3916 215.797816    281.025   10.15788   97.32698 1.3045e+03     0.5380    87.4164     0.0431     0.0210  0.000e+00
      0.644    13.3748 215.677210    280.990   10.25674   98.23775 1.5594e+03     0.5369    87.4394     0.0425     0.0188  0.000e+00
      0.718    13.3635 215.104289    280.326   10.35974   99.19918 9.3345e+02     0.5401    87.3687     0.0431     0.0181  0.000e+00
      0.795    13.3467 213.687121    278.602   10.45872  100.10893 1.1994e+03     0.5404    87.3621     0.0437     0.0172  0.000e+00
      0.835    13.3299 216.551749    282.460   10.54767  100.92398 1.5874e+03     0.5356    87.4674     0.0431     0.0166  0.000e+00
      0.852    13.3359 214.832928    280.174   10.62264  101.65420 1.4465e+03     0.5381    87.4131     0.0423     0.0167  0.000e+00
      0.860    13.3374 213.144404    277.962   10.69466  102.34596 1.6999e+03     0.5376    87.4246     0.0420     0.0307  0.000e+00
      0.858    13.3261 212.059005    276.628   10.74912  102.84095 1.1623e+03     0.5414    87.3407     0.0427     0.0241  0.000e+00
      0.849    13.3093 211.727376    276.316   10.78128  103.11015 1.5074e+03     0.5409    87.3522     0.0456     0.0137  0.000e+00
      0.833    13.3074 211.636931    276.212   10.58635  101.24141 1.4381e+03     0.5545    87.0561     0.0447     0.0065  0.000e+00
      0.815    13.3043 211.486189    276.037   10.32578   98.74279 9.8865e+02     0.5558    87.0265     0.0455     0.0130  0.000e+00
      0.798    13.3017 211.456042    276.017   10.07834   96.37103 1.4066e+03     0.5446    87.2716     0.0436     0.0038  0.000e+00
      0.785    13.3031 211.365595    275.889    9.81412   93.84726 1.5782e+03     0.5474    87.2107     0.0416     0.0071  0.000e+00
      0.784    13.3068 211.456038    275.980    9.58074   91.62319 1.0497e+03     0.5380    87.4164     0.0414     0.0183  0.000e+00
      0.792    13.3104 211.486184    275.993    9.41589   90.05394 1.3858e+03     0.5397    87.3785     0.0414     0.0246  0.000e+00
      0.807    13.3147 211.576628    276.081    9.30069   88.96049 1.7459e+03     0.5397    87.3785     0.0412     0.0272  0.000e+00
      0.827    13.3193 211.787667    276.323    9.27494   88.72351 1.1666e+03     0.5438    87.2897     0.0417     0.0277  0.000e+00
      0.844    13.3257 212.812754    277.614    9.32724   89.23670 3.0546e+03     0.5404    87.3621     0.0432     0.0264  0.000e+00
      0.849    13.3400 213.837886    278.847    9.35316   89.51350 1.3795e+03     0.5685    86.7518     0.0449     0.0277  0.000e+00
      0.843    13.3451 213.687123    278.614    9.31715   89.17883 1.7926e+03     0.5558    87.0265     0.0444     0.0364  0.000e+00
      0.827    13.3406 212.782593    277.467    9.23479   88.38145 1.3943e+03     0.5600    86.9360     0.0427     0.0378  0.000e+00
      0.807    13.3303 212.450947    277.108    9.11995   87.26245 1.3669e+03     0.5398    87.3769     0.0434     0.0576  0.000e+00
      0.793    13.3177 212.270057    276.964    9.00058   86.09601 1.4713e+03     0.5376    87.4229     0.0424     0.1021  0.000e+00
      0.789    13.3093 212.089165    276.788    8.89532   85.07329 1.4323e+03     0.5459    87.2436     0.0394     0.0787  0.000e+00
      0.797    13.3110 211.998716    276.658    8.80468   84.20943 1.8544e+03     0.5416    87.3358     0.0391     0.0471  0.000e+00
      0.811    13.3173 211.968563    276.573    8.73642   83.56836 9.3362e+02     0.5383    87.4081     0.0388     0.0700  0.000e+00
      0.827    13.3283 212.149452    276.730    8.67634   83.01397 4.4448e+03     0.5472    87.2140     0.0413     0.0502  0.000e+00
      0.838    13.3414 212.330341    276.871    8.63260   82.61957 9.8155e+02     0.5523    87.1038     0.0416     0.0364  0.000e+00
      0.841    13.3540 212.571532    277.095    8.58424   82.17964 1.0920e+03     0.5488    87.1795     0.0400     0.0282  0.000e+00
      0.839    13.3640 212.842878    277.376    8.54990   81.86916 1.8093e+03     0.5412    87.3456     0.0420     0.0000  0.000e+00
      0.832    13.3662 212.390623    276.771    8.52619   81.64604 1.9883e+03     0.5449    87.2650     0.0413     0.0000  0.000e+00
      0.827    13.3629 212.119278    276.441    8.52795   81.65692 1.5080e+03     0.5377    87.4213     0.0414     0.0099  0.000e+00
      0.821    13.3506 212.089137    276.490    8.56460   81.98542 3.2008e+03     0.5362    87.4542     0.0422     0.0467  0.000e+00
      0.817    13.3349 211.998700    276.486    8.63897   82.66850 2.0200e+03     0.5352    87.4772     0.0444     0.0534  0.000e+00
      0.813    13.3237 212.028857    276.606    8.71548   83.37991 1.3975e+03     0.5341    87.5003     0.0457     0.0458  0.000e+00
      0.811    13.3195 211.998710    276.597    8.77745   83.96492 2.5760e+03     0.5311    87.5661     0.0475     0.0364  0.000e+00
      0.813    13.3204 211.908262    276.472    8.80350   84.21580 1.9079e+03     0.5382    87.4114     0.0465     0.0000  0.000e+00
      0.813    13.3242 211.998707    276.563    8.77265   83.92773 1.7334e+03     0.5392    87.3900     0.0445     0.0000  0.000e+00
      0.813    13.3278 212.089153    276.655    8.75914   83.80526 1.1386e+03     0.5378    87.4197     0.0421     0.0027  0.000e+00
      0.808    13.3320 212.270047    276.860    8.73157   83.54941 2.2640e+03     0.5331    87.5233     0.0394     0.0153  0.000e+00
      0.804    13.3353 212.270045    276.836    8.71381   83.38553 1.2947e+03     0.5401    87.3703     0.0376     0.0191  0.000e+00
      0.802    13.3357 211.938401    276.401    8.72774   83.51936 1.4113e+03     0.5474    87.2107     0.0394     0.0000  0.000e+00
      0.800    13.3344 211.968551    276.450    8.77785   83.99659 1.6928e+03     0.5352    87.4772     0.0404     0.0000  0.000e+00
      0.801    13.3324 211.998701    276.504    8.85324   84.71417 1.8796e+03     0.5443    87.2782     0.0403     0.0000  0.000e+00
      0.804    13.3310 212.089150    276.632    8.94263   85.56697 1.6721e+03     0.5594    86.9492     0.0420     0.0000  0.000e+00
      0.811    13.3299 212.059002    276.600    9.01484   86.25577 1.8008e+03     0.5409    87.3522     0.0429     0.0000  0.000e+00
      0.827    13.3278 211.908257    276.419    9.04295   86.52056 1.3978e+03     0.5685    86.7518     0.0413     0.0000  0.000e+00
      0.843    13.3203 211.968561    276.552    9.06008   86.67008 1.0868e+03     0.5516    87.1186     0.0407     0.0000  0.000e+00
      0.855    13.3128 212.420810    277.196    9.06825   86.73398 1.4148e+03     0.5404    87.3637     0.0399     0.0074  0.000e+00
      0.856    13.3176 213.265022    278.263    9.07090   86.76880 1.0062e+03     0.5399    87.3736     0.0443     0.0000  0.000e+00
      0.847    13.3317 213.144408    278.003    9.05739   86.66665 3.2581e+03     0.5477    87.2025     0.0443     0.0044  0.000e+00
      0.832    13.3351 212.631845    277.310    9.03049   86.41553 9.2985e+02     0.5453    87.2552     0.0436     0.0166  0.000e+00
      0.810    13.3255 212.330351    276.986    9.00254   86.12980 1.7095e+03     0.5388    87.3983     0.0417     0.0000  0.000e+00
      0.790    13.3107 211.968567    276.621    8.97786   85.86525 1.2730e+03     0.5376    87.4246     0.0398     0.0000  0.000e+00
      0.774    13.2949 211.727385    276.420    8.96575   85.71930 1.9200e+03     0.5395    87.3835     0.0406     0.0000  0.000e+00
      0.767    13.2816 211.636947    276.398    8.95124   85.55523 1.6300e+03     0.5395    87.3835     0.0403     0.0023  0.000e+00
      0.775    13.2747 211.425912    276.173    8.94439   85.47659 1.5865e+03     0.5355    87.4690     0.0405     0.0484  0.000e+00
      0.790    13.2743 211.516358    276.294    8.93629   85.39842 1.6404e+03     0.5409    87.3522     0.0413     0.0436  0.000e+00
      0.812    13.2799 212.209784    277.159    8.91432   85.19932 1.4434e+03     0.5374    87.4279     0.0406     0.0468  0.000e+00
      0.831    13.2992 213.928370    279.262    8.89117   85.01507 1.0122e+03     0.5524    87.1005     0.0416     0.0289  0.000e+00
      0.843    13.3117 214.350496    279.722    8.85685   84.71066 1.2345e+03     0.5438    87.2897     0.0418     0.0192  0.000e+00
      0.845    13.3106 214.440955    279.848    8.82305   84.38534 1.8453e+03     0.5336    87.5118     0.0395     0.0210  0.000e+00
      0.840    13.3678 214.048932    278.920    8.76379   83.92482 1.0857e+03     0.5395    87.3835     0.0406     0.0182  0.000e+00
      0.827    13.4124 213.325258    277.654    8.70652   83.45864 2.1282e+03     0.5553    87.0380     0.0404     0.0000  0.000e+00
      0.815    13.4181 212.692088    276.790    8.65671   82.99134 1.2834e+03     0.5378    87.4197     0.0417     0.0053  0.000e+00
      0.805    13.4049 212.209698    276.256    8.63782   82.78590 1.3349e+03     0.5382    87.4114     0.0423     0.0094  0.000e+00
      0.804    13.3814 211.968518    276.112    8.64868   82.84671 1.0907e+03     0.5429    87.3078     0.0421     0.0243  0.000e+00
      0.808    13.3557 212.058984    276.415    8.68511   83.14836 2.0378e+03     0.5401    87.3687     0.0426     0.0479  0.000e+00
      0.813    13.3376 212.873046    277.606    8.73186   83.56261 1.2412e+03     0.5403    87.3654     0.0414     0.0523  0.000e+00
      0.819    13.3451 213.687123    278.614    8.76395   83.88384 1.3027e+03     0.5539    87.0676     0.0398     0.0555  0.000e+00
      0.823    13.3485 213.988640    278.982    8.76930   83.94154 1.9647e+03     0.5645    86.8390     0.0381     0.0334  0.000e+00
      0.827    13.3399 213.626823    278.573    8.75652   83.80316 1.6384e+03     0.5578    86.9837     0.0391     0.0314  0.000e+00
      0.826    13.3255 213.144412    278.048    8.71082   83.33911 1.5857e+03     0.5539    87.0693     0.0426     0.0351  0.000e+00
      0.819    13.3096 213.204725    278.242    8.64097   82.64162 1.8365e+03     0.5601    86.9344     0.0526     0.0243  0.000e+00
      0.808    13.2980 213.144431    278.248    8.55469   81.79531 1.8157e+03     0.5505    87.1417     0.0505     0.0220  0.000e+00
      0.794    13.2906 213.114284    278.262    8.47028   80.97495 1.1994e+03     0.5725    86.6646     0.0478     0.0538  0.000e+00
      0.792    13.2802 212.903236    278.062    8.40014   80.28581 1.2615e+03     0.5591    86.9558     0.0453     0.0540  0.000e+00
      0.793    13.2666 212.842944    278.083    8.35308   79.81181 1.3426e+03     0.5601    86.9344     0.0441     0.0407  0.000e+00
      0.800    13.2555 213.265064    278.715    8.32195   79.49495 1.7279e+03     0.5635    86.8587     0.0430     0.0279  0.000e+00
      0.809    13.2543 214.199772    279.945    8.31274   79.40503 1.1833e+03     0.5579    86.9804     0.0422     0.0114  0.000e+00
      0.817    13.2597 214.440990    280.220    8.31548   79.44093 1.9897e+03     0.5595    86.9475     0.0422     0.0159  0.000e+00
      0.825    13.2588 214.561603    280.385    8.31941   79.47699 1.2015e+03     0.5559    87.0249     0.0427     0.0000  0.000e+00
      0.831    13.2577 214.440992    280.235    8.30278   79.31611 1.3054e+03     0.5435    87.2946     0.0423     0.0000  0.000e+00
      0.836    13.2689 214.501290    280.232    8.27046   79.02695 1.6768e+03     0.5470    87.2190     0.0430     0.0000  0.000e+00
      0.836    13.2917 214.621886    280.223    8.22495   78.63198 1.5846e+03     0.5595    86.9459     0.0448     0.0000  0.000e+00
      0.832    13.3194 214.772633    280.217    8.16963   78.15121 1.1386e+03     0.5591    86.9558     0.0469     0.0000  0.000e+00
      0.830    13.3426 214.501238    279.693    8.09946   77.51978 1.8501e+03     0.5628    86.8752     0.0520     0.0000  0.000e+00
      0.829    13.3482 214.260012    279.338    8.03368   76.89962 2.9399e+03     0.5724    86.6662     0.0516     0.0000  0.000e+00
      0.827    13.3408 214.561545    279.785    7.96589   76.23838 1.3645e+03     0.5672    86.7798     0.0496     0.0000  0.000e+00
      0.823    13.3406 215.104307    280.494    7.89424   75.55241 1.1967e+03     0.5537    87.0726     0.0487     0.0000  0.000e+00
      0.815    13.3547 215.405838    280.784    7.84954   75.14818 3.5873e+03     0.5646    86.8357     0.0467     0.0000  0.000e+00
      0.800    13.3707 215.375672    280.628    7.79423   74.64517 1.1053e+03     0.5542    87.0610     0.0466     0.0192  0.000e+00
      0.786    13.3785 215.134434    280.256    7.75256   74.25897 1.3650e+03     0.5489    87.1778     0.0455     0.0308  0.000e+00
      0.773    13.3801 214.682129    279.656    7.70852   73.83946 1.4175e+03     0.5380    87.4147     0.0462     0.0307  0.000e+00
      0.764    13.3790 214.350447    279.232    7.67550   73.52133 2.1618e+03     0.5451    87.2601     0.0448     0.0693  0.000e+00
      0.764    13.3718 214.048927    278.891    7.63819   73.15221 1.3595e+03     0.5536    87.0742     0.0443     0.0678  0.000e+00
      0.774    13.3537 213.295147    278.040    7.60507   72.80555 1.5768e+03     0.5480    87.1959     0.0439     0.0335  0.000e+00
      0.795    13.3205 212.390654    277.101    7.58251   72.53584 2.4459e+03     0.5395    87.3835     0.0435     0.0502  0.000e+00
      0.820    13.2691 211.847999    276.764    7.56374   72.27355 1.9268e+03     0.5415    87.3391     0.0433     0.0597  0.000e+00
      0.839    13.2143 211.727441    277.004    7.57320   72.27582 1.5173e+03     0.5446    87.2716     0.0426     0.0537  0.000e+00
      0.848    13.1812 212.571651    278.349    7.59696   72.44951 3.8580e+03     0.5527    87.0939     0.0416     0.0393  0.000e+00
      0.844    13.1905 214.079207    280.255    7.63066   72.78641 1.6090e+03     0.5506    87.1400     0.0404     0.0330  0.000e+00
      0.826    13.1901 214.561651    280.889    7.66617   73.12455 9.7280e+02     0.5590    86.9574     0.0404     0.0310  0.000e+00
      0.799    13.1822 215.315495    281.935    7.69064   73.34527 1.7922e+03     0.5659    86.8077     0.0402     0.0619  0.000e+00
      0.771    13.2599 215.466212    281.559    7.69351   73.49970 2.1804e+03     0.5450    87.2634     0.0398     0.0462  0.000e+00
      0.751    13.4078 214.983644    279.846    7.66860   73.50237 1.7533e+03     0.5475    87.2075     0.0391     0.0296  0.000e+00
      0.749    13.5292 214.078970    277.790    7.64212   73.44549 1.2153e+03     0.5639    86.8505     0.0380     0.0307  0.000e+00
      0.764    13.5587 213.264853    276.522    7.63154   73.39134 1.6586e+03     0.5600    86.9360     0.0376     0.0385  0.000e+00
      0.789    13.5500 212.691996    275.842    7.64803   73.53567 1.5991e+03     0.5441    87.2831     0.0397     0.0368  0.000e+00
      0.818    13.5135 212.330222    275.634    7.71273   74.09783 1.0532e+03     0.5474    87.2091     0.0417     0.0375  0.000e+00
      0.843    13.4250 212.089086    275.955    7.83939   75.16709 1.9537e+03     0.5407    87.3555     0.0429     0.0304  0.000e+00
      0.861    13.3364 212.511244    277.144    7.99173   76.47751 2.3106e+03     0.5392    87.3884     0.0467     0.0000  0.000e+00
      0.864    13.2957 213.807765    279.131    8.15078   77.92946 1.7885e+03     0.5573    86.9952     0.0454     0.0000  0.000e+00
      0.856    13.2827 214.501281    280.131    8.28168   79.15848 1.0274e+03     0.5478    87.2009     0.0479     0.0000  0.000e+00
      0.833    13.2605 215.285287    281.318    8.38932   80.14800 1.9475e+03     0.5617    86.8998     0.0454     0.0000  0.000e+00
      0.806    13.3263 215.496320    281.110    8.44778   80.82456 3.6095e+03     0.5445    87.2733     0.0433     0.0000  0.000e+00
      0.787    13.4643 215.435915    280.023    8.46148   81.20376 1.7201e+03     0.5389    87.3950     0.0439     0.0000  0.000e+00
      0.775    13.5892 214.983518    278.531    8.42994   81.12468 9.4966e+02     0.5463    87.2338     0.0420     0.0261  0.000e+00
      0.773    13.6490 214.380412    277.319    8.39428   80.88808 2.6189e+03     0.5426    87.3144     0.0419     0.0421  0.000e+00
      0.776    13.6334 213.988441    276.924    8.39236   80.84151 1.0838e+03     0.5438    87.2897     0.0414     0.0470  0.000e+00
      0.785    13.5888 213.686953    276.853    8.39951   80.83081 1.8167e+03     0.5365    87.4476     0.0410     0.0209  0.000e+00
      0.794    13.5581 213.355308    276.644    8.43130   81.08158 1.6595e+03     0.5397    87.3785     0.0410     0.0000  0.000e+00
      0.802    13.5151 213.325187    276.914    8.47219   81.39723 1.3843e+03     0.5396    87.3802     0.0435     0.0002  0.000e+00
      0.804    13.4722 213.475973    277.419    8.50655   81.64983 2.1877e+03     0.5480    87.1959     0.0445     0.0095  0.000e+00
      0.806    13.4525 213.626745    277.757    8.52042   81.74744 2.6588e+03     0.5474    87.2107     0.0457     0.0095  0.000e+00
      0.808    13.4505 213.566443    277.693    8.52397   81.77772 1.4937e+03     0.5475    87.2075     0.0468     0.0012  0.000e+00
      0.815    13.4520 213.385533    277.447    8.50135   81.56337 1.8823e+03     0.5473    87.2124     0.0481     0.0044  0.000e+00
      0.827    13.4441 213.264934    277.347    8.45164   81.07224 1.3200e+03     0.5453    87.2568     0.0484     0.0008  0.000e+00
      0.839    13.4069 213.144356    277.459    8.39000   80.41466 1.1750e+03     0.5460    87.2404     0.0477     0.0080  0.000e+00
      0.844    13.3576 213.506205    278.287    8.31652   79.62338 1.8773e+03     0.5428    87.3111     0.0472     0.0000  0.000e+00
      0.842    13.3347 214.199717    279.358    8.24267   78.87648 1.6260e+03     0.5493    87.1680     0.0437     0.0038  0.000e+00
      0.833    13.3371 214.561548    279.812    8.16532   78.14061 9.1205e+02     0.5370    87.4378     0.0431     0.0213  0.000e+00
      0.819    13.3368 214.832927    280.168    8.09635   77.48012 1.2858e+03     0.5344    87.4937     0.0446     0.0214  0.000e+00
      0.800    13.3575 215.164603    280.449    8.02625   76.84470 2.1625e+03     0.5428    87.3111     0.0459     0.0072  0.000e+00
      0.783    13.4263 215.255016    280.065    7.97359   76.45705 2.4727e+03     0.5398    87.3769     0.0456     0.0000  0.000e+00
      0.771    13.5006 215.164502    279.406    7.90362   75.91099 1.7894e+03     0.5432    87.3012     0.0457     0.0002  0.000e+00
      0.764    13.5630 214.832768    278.524    7.85523   75.55014 2.4888e+03     0.5388    87.3983     0.0464     0.0051  0.000e+00
      0.771    13.6001 214.199531    277.436    7.81543   75.22889 1.8701e+03     0.5331    87.5233     0.0440     0.0000  0.000e+00
      0.803    13.6129 213.114061    275.939    7.79191   75.02340 1.4521e+03     0.5364    87.4509     0.0417     0.0103  0.000e+00
      0.861    13.5785 211.908085    274.622    7.77228   74.77717 1.1574e+03     0.5581    86.9772     0.0412     0.0172  0.000e+00
      0.927    13.4535 210.852979    274.143    7.78097   74.65381 1.1015e+03     0.5407    87.3555     0.0407     0.0137  0.000e+00
      0.982    13.3331 210.521441    274.572    7.81149   74.74667 9.8414e+02     0.5410    87.3489     0.0414     0.0112  0.000e+00
      1.037    13.2502 210.431057    275.049    7.84995   74.97659 2.2230e+03     0.5382    87.4114     0.0524     0.0174  0.000e+00
      1.098    13.1830 209.978904    274.941    7.88693   75.21706 2.0912e+03     0.5551    87.0413     0.0539     0.0212  0.000e+00
      1.154    13.1258 209.858359    275.195    7.90686   75.31128 1.4956e+03     0.5523    87.1038     0.0507     0.0242  0.000e+00
      1.198    13.0852 210.039266    275.726    7.92676   75.43251 1.2742e+03     0.5502    87.1482     0.0497     0.0230  0.000e+00
      1.232    13.0646 210.340747    276.271    7.96851   75.79517 9.5250e+02     0.5471    87.2173     0.0488     0.0196  0.000e+00
      1.264    13.0613 210.762811    276.850    8.04119   76.48089 2.2556e+03     0.5521    87.1088     0.0462     0.0156  0.000e+00
      1.291    13.0576 211.697409    278.105    8.15447   77.55215 1.4856e+03     0.5450    87.2617     0.0439     0.0146  0.000e+00
      1.307    13.0507 212.481300    279.185    8.29087   78.83761 8.6416e+02     0.5452    87.2584     0.0431     0.0087  0.000e+00
      1.326    13.0398 212.511458    279.305    8.47063   80.52729 1.0039e+03     0.5492    87.1713     0.0446     0.0116  0.000e+00
      1.356    13.0293 211.546686    278.114    8.65113   82.22370 1.1650e+03     0.5433    87.2996     0.0462     0.0000  0.000e+00
      1.398    13.0223 210.672398    277.015    8.79868   83.61259 2.0158e+03     0.5487    87.1811     0.0452     0.0000  0.000e+00
      1.447    13.0111 210.069468    276.304    8.91766   84.72192 1.4079e+03     0.5558    87.0265     0.0449     0.0000  0.000e+00
      1.503    12.9988 209.737868    275.957    8.99663   85.44851 1.2639e+03     0.5582    86.9755     0.0433     0.0081  0.000e+00
      1.566    12.9914 209.556999    275.772    9.03874   85.83445 1.4467e+03     0.5468    87.2239     0.0433     0.0141  0.000e+00
      1.632    12.9916 209.345980    275.493    9.05327   85.97270 1.9029e+03     0.5399    87.3736     0.0459     0.0169  0.000e+00
      1.697    12.9999 209.376121    275.473    9.04351   85.89592 1.8796e+03     0.5339    87.5052     0.0469     0.0205  0.000e+00
      1.755    13.0334 209.436391    275.310    9.00978   85.63951 8.5360e+02     0.5511    87.1301     0.0460     0.0211  0.000e+00
      1.803    13.0761 209.587091    275.199    8.94634   85.11757 2.0945e+03     0.5524    87.1005     0.0451     0.0208  0.000e+00
      1.840    13.1107 210.099554    275.621    8.88105   84.56173 7.8954e+02     0.5443    87.2782     0.0459     0.0166  0.000e+00
      1.869    13.1350 210.792920    276.354    8.80143   83.84931 2.0175e+03     0.5429    87.3078     0.0437     0.0109  0.000e+00
      1.892    13.1442 211.456172    277.157    8.72976   83.18370 1.2539e+03     0.5485    87.1861     0.0420     0.0140  0.000e+00
      1.910    13.1448 211.908405    277.745    8.67385   82.65220 1.2349e+03     0.5456    87.2486     0.0407     0.0135  0.000e+00
      1.929    13.1458 211.908405    277.738    8.64171   82.34774 1.4079e+03     0.5548    87.0495     0.0393     0.0144  0.000e+00
      1.959    13.1492 211.214983    276.804    8.62514   82.19595 2.6532e+03     0.5386    87.4016     0.0400     0.0182  0.000e+00
      2.001    13.1548 210.340701    275.618    8.63478   82.29773 8.8927e+02     0.5416    87.3374     0.0421     0.0217  0.000e+00
      2.049    13.1661 210.039227    275.142    8.65312   82.49318 1.4911e+03     0.5516    87.1186     0.0436     0.0242  0.000e+00
      2.099    13.1806 209.918633    274.879    8.68729   82.84563 1.1641e+03     0.5350    87.4805     0.0447     0.0210  0.000e+00
      2.153    13.1935 209.918625    274.787    8.73316   83.30696 9.9004e+02     0.5297    87.5973     0.0451     0.0253  0.000e+00
      2.210    13.2096 209.978908    274.750    8.77385   83.72505 8.4420e+02     0.5286    87.6220     0.0455     0.0215  0.000e+00
      2.269    13.2214 209.978901    274.664    8.80785   84.07172 9.5552e+02     0.5352    87.4772     0.0451     0.0216  0.000e+00
      2.326    13.2212 210.069341    274.784    8.82284   84.21443 8.2470e+02     0.5324    87.5381     0.0456     0.0347  0.000e+00
      2.382    13.2030 210.039208    274.876    8.82262   84.17814 1.2881e+03     0.5308    87.5726     0.0449     0.0322  0.000e+00
      2.432    13.1626 210.069384    275.207    8.81094   83.99114 7.3544e+02     0.5346    87.4904     0.0440     0.0260  0.000e+00
      2.475    13.1268 210.159849    275.584    8.80830   83.89918 1.2395e+03     0.5477    87.2042     0.0432     0.0231  0.000e+00
      2.510    13.0989 210.370896    276.063    8.82321   83.98894 6.7134e+02     0.5401    87.3687     0.0432     0.0204  0.000e+00
      2.536    13.0736 210.853271    276.879    8.86140   84.30516 1.0462e+03     0.5385    87.4049     0.0434     0.0216  0.000e+00
      2.560    13.0665 211.215052    277.406    8.91641   84.81527 1.1202e+03     0.5422    87.3226     0.0439     0.0230  0.000e+00
      2.584    13.0648 211.516537    277.815    8.98875   85.50013 9.7417e+02     0.5475    87.2075     0.0434     0.0217  0.000e+00
      2.606    13.0598 211.637136    278.009    9.05852   86.15429 6.8192e+02     0.5568    87.0051     0.0436     0.0204  0.000e+00
      2.633    13.0552 211.516545    277.885    9.10377   86.57572 8.3976e+02     0.5675    86.7732     0.0437     0.0190  0.000e+00
      2.669    13.0491 210.853290    277.058    9.12399   86.75594 8.3403e+02     0.5819    86.4606     0.0549     0.0175  0.000e+00
      2.720    13.0361 210.370943    276.519    9.10638   86.56319 1.1560e+03     0.5961    86.1547     0.0587     0.0192  0.000e+00
      2.780    12.9813 209.677613    276.005    9.07078   86.11921 1.4203e+03     0.5950    86.1777     0.0597     0.0205  0.000e+00
      2.848    12.8183 208.773365    275.999    9.04429   85.55493 6.3732e+02     0.6117    85.8191     0.0603     0.0191  0.000e+00
      2.916    12.6659 207.869149    275.916    9.02219   85.05440 7.9455e+02     0.6251    85.5328     0.0613     0.0180  0.000e+00
      2.979    12.5223 207.206104    276.089    9.00668   84.63422 9.8501e+02     0.6372    85.2746     0.0639     0.0175  0.000e+00
      3.035    12.3996 206.874623    276.551    8.99575   84.29812 7.4598e+02     0.6599    84.7910     0.0683     0.0199  0.000e+00
      3.081    12.2955 206.874694    277.324    8.97666   83.92163 9.7007e+02     0.6647    84.6906     0.0714     0.0228  0.000e+00
      3.116    12.2357 207.266584    278.295    8.94942   83.55417 6.4691e+02     0.6745    84.4833     0.0709     0.0202  0.000e+00
      3.145    12.2354 207.990019    279.269    8.91081   83.19330 7.2010e+02     0.6770    84.4291     0.0701     0.0192  0.000e+00
      3.170    12.2615 208.803894    280.165    8.86663   82.82996 1.0644e+03     0.6765    84.4406     0.0707     0.0179  0.000e+00
      3.192    12.2671 209.135486    280.568    8.84887   82.67475 8.7639e+02     0.6717    84.5409     0.0742     0.0173  0.000e+00
      3.216    12.2483 209.225935    280.831    8.85126   82.66178 7.6914e+02     0.6784    84.3994     0.0732     0.0177  0.000e+00
      3.242    12.2240 208.924501    280.609    8.87522   82.83998 9.9353e+02     0.6860    84.2399     0.0750     0.0175  0.000e+00
      3.272    12.2059 207.929754    279.409    8.90790   83.11061 5.6585e+02     0.6926    84.1017     0.0756     0.0190  0.000e+00
      3.314    12.1916 207.146048    278.463    8.95221   83.49683 6.5457e+02     0.6924    84.1050     0.0742     0.0194  0.000e+00
      3.365    12.1569 206.151398    277.385    8.99731   83.85104 1.0072e+03     0.6949    84.0523     0.0742     0.0191  0.000e+00
      3.422    12.0749 205.578784    277.226    9.04482   84.13717 7.3985e+02     0.7089    83.7595     0.0765     0.0215  0.000e+00
      3.483    11.9825 205.036332    277.186    9.09049   84.38446 7.9777e+02     0.7119    83.6954     0.0886     0.0210  0.000e+00
      3.546    11.8971 204.524028    277.134    9.11812   84.47651 5.7245e+02     0.7117    83.7003     0.0856     0.0214  0.000e+00
      3.606    11.8288 204.222691    277.238    9.13716   84.52127 8.4095e+02     0.7226    83.4733     0.0819     0.0215  0.000e+00
      3.659    11.7767 204.283003    277.713    9.13958   84.44339 6.8169e+02     0.7046    83.8500     0.0794     0.0205  0.000e+00
      3.702    11.7455 204.946077    278.851    9.11701   84.17507 6.4193e+02     0.7097    83.7414     0.0791     0.0175  0.000e+00
      3.737    11.7474 206.392809    280.805    9.07721   83.81177 1.0224e+03     0.7156    83.6181     0.0793     0.0198  0.000e+00
      3.764    11.7624 207.779346    282.576    9.02638   83.37145 8.1677e+02     0.7178    83.5720     0.0813     0.0229  0.000e+00
      3.785    11.7494 208.261654    283.332    8.98711   82.98422 6.2424e+02     0.7105    83.7266     0.0828     0.0217  0.000e+00
      3.804    11.7198 208.442540    283.807    8.96003   82.67833 5.7245e+02     0.7164    83.6033     0.0880     0.0214  0.000e+00
      3.830    11.7015 208.201399    283.620    8.93903   82.45008 8.5120e+02     0.7222    83.4815     0.0873     0.0201  0.000e+00
      3.864    11.7313 207.658796    282.651    8.91569   82.29067 5.8588e+02     0.7119    83.6970     0.0844     0.0195  0.000e+00
      3.906    11.7624 206.694217    281.100    8.90811   82.27871 6.2876e+02     0.7163    83.6049     0.0890     0.0189  0.000e+00
      3.954    11.7622 205.880407    279.995    8.91185   82.31260 5.7295e+02     0.7158    83.6148     0.0879     0.0179  0.000e+00
      4.007    11.7505 205.398172    279.428    8.92483   82.41030 5.5103e+02     0.7289    83.3417     0.1175     0.0175  0.000e+00
      4.059    11.7348 204.885812    278.850    8.94162   82.53567 6.7846e+02     0.7070    83.7990     0.1229     0.0177  0.000e+00
      4.110    11.6978 204.524172    278.638    8.96779   82.70718 5.8321e+02     0.6929    84.0951     0.1130     0.0187  0.000e+00
      4.158    11.6552 204.313232    278.675    8.99388   82.86697 5.2338e+02     0.6929    84.0951     0.1025     0.0192  0.000e+00
      4.202    11.6202 204.343394    278.983    9.00845   82.93484 5.9323e+02     0.7015    83.9142     0.0943     0.0178  0.000e+00
      4.245    11.5976 204.524241    279.402    9.01264   82.93058 5.7689e+02     0.6993    83.9602     0.1014     0.0185  0.000e+00
      4.282    11.5856 204.946194    280.070    8.98653   82.66770 5.6525e+02     0.7025    83.8928     0.0989     0.0182  0.000e+00
      4.320    11.5890 205.096890    280.250    8.94459   82.28843 5.4554e+02     0.7018    83.9076     0.1009     0.0192  0.000e+00
      4.358    11.6038 205.006462    280.013    8.87486   81.67462 6.2798e+02     0.7135    83.6625     0.0961     0.0192  0.000e+00
      4.398    11.6108 204.976319    279.919    8.79768   80.97718 5.4382e+02     0.7104    83.7283     0.0915     0.0181  0.000e+00
      4.437    11.6063 205.006462    279.994    8.70446   80.11097 5.2127e+02     0.6986    83.9750     0.0900     0.0194  0.000e+00
      4.475    11.5963 205.036609    280.112    8.62815   79.39040 5.2679e+02     0.6912    84.1313     0.0887     0.0195  0.000e+00
      4.515    11.5842 205.066757    280.245    8.54601   78.61292 4.7425e+02     0.7030    83.8829     0.0885     0.0209  0.000e+00
      4.558    11.5731 204.976347    280.207    8.47874   77.97418 5.3294e+02     0.6930    84.0935     0.0923     0.0190  0.000e+00
      4.606    11.5575 204.855802    280.161    8.43377   77.53299 4.4604e+02     0.7097    83.7414     0.0922     0.0187  0.000e+00
      4.652    11.5417 204.765396    280.159    8.39309   77.13105 4.0874e+02     0.6952    84.0474     0.0908     0.0184  0.000e+00
      4.699    11.5307 204.644849    280.079    8.37752   76.96850 4.6273e+02     0.6925    84.1033     0.0892     0.0186  0.000e+00
      4.749    11.5176 204.464027    279.932    8.37218   76.89622 4.8615e+02     0.7004    83.9372     0.0893     0.0182  0.000e+00
      4.796    11.4970 204.433903    280.048    8.37015   76.84140 5.7801e+02     0.7032    83.8796     0.0929     0.0197  0.000e+00
      4.837    11.4818 204.644884    280.454    8.37783   76.88508 4.1054e+02     0.6979    83.9898     0.0966     0.0191  0.000e+00
      4.877    11.4798 204.976416    280.924    8.38761   76.97157 3.9463e+02     0.7005    83.9356     0.0973     0.0188  0.000e+00
      4.917    11.4880 205.277806    281.274    8.38847   76.99392 4.7575e+02     0.7039    83.8632     0.0972     0.0198  0.000e+00
      4.955    11.5008 205.820320    281.918    8.38974   77.02844 4.8020e+02     0.6981    83.9865     0.0942     0.0192  0.000e+00
      4.994    11.5138 206.001156    282.065    8.37827   76.94603 3.9373e+02     0.6979    83.9898     0.0938     0.0184  0.000e+00
      5.040    11.5215 205.639466    281.511    8.35290   76.72647 3.5827e+02     0.6976    83.9964     0.0954     0.0179  0.000e+00
      5.089    11.5241 204.946251    280.542    8.31315   76.36565 4.0254e+02     0.7097    83.7431     0.0971     0.0187  0.000e+00
      5.139    11.5187 204.765421    280.336    8.26166   75.88315 4.6354e+02     0.6865    84.2300     0.0982     0.0192  0.000e+00
      5.188    11.5055 204.433904    279.983    8.21171   75.40143 4.0924e+02     0.6967    84.0145     0.0979     0.0179  0.000e+00
      5.233    11.4920 204.343499    279.963    8.15839   74.88864 3.4901e+02     0.6860    84.2399     0.0957     0.0185  0.000e+00
      5.275    11.4801 204.373646    280.095    8.11685   74.48719 3.7687e+02     0.6861    84.2382     0.0956     0.0201  0.000e+00
      5.313    11.4735 204.584621    280.435    8.08009   74.13860 3.6347e+02     0.6863    84.2333     0.0945     0.0202  0.000e+00
      5.348    11.4734 204.735316    280.643    8.05608   73.91814 3.4143e+02     0.6929    84.0951     0.0938     0.0197  0.000e+00
      5.383    11.4777 204.644897    280.486    8.03605   73.74160 3.4651e+02     0.6894    84.1675     0.0927     0.0188  0.000e+00
      5.423    11.4805 204.524341    280.299    8.02293   73.62599 3.6501e+02     0.6864    84.2317     0.0914     0.0194  0.000e+00
      5.467    11.4743 204.403792    280.182    8.00709   73.47008 3.7522e+02     0.6745    84.4833     0.0906     0.0202  0.000e+00
      5.519    11.4543 203.801046    279.508    7.98531   73.23648 3.5253e+02     0.6815    84.3353     0.0966     0.0196  0.000e+00
      5.579    11.4261 203.047640    278.691    7.96761   73.02658 3.0932e+02     0.6708    84.5607     0.0971     0.0205  0.000e+00
      5.638    11.3966 202.686026    278.420    7.95192   72.83348 3.3531e+02     0.6719    84.5376     0.0996     0.0206  0.000e+00
      5.691    11.3635 202.655913    278.632    7.94850   72.74667 3.3284e+02     0.6867    84.2251     0.1014     0.0207  0.000e+00
      5.737    11.3387 202.686066    278.864    7.97007   72.90251 3.1775e+02     0.6919    84.1165     0.1087     0.0206  0.000e+00
      5.779    11.3293 203.228528    279.683    8.00981   73.25041 3.0862e+02     0.6816    84.3336     0.1115     0.0201  0.000e+00
      5.811    11.3414 204.343610    281.123    8.05305   73.66667 3.2515e+02     0.6791    84.3863     0.1091     0.0187  0.000e+00
      5.842    11.3664 205.157346    282.048    8.08831   74.03206 2.9108e+02     0.6747    84.4784     0.1073     0.0197  0.000e+00
      5.870    11.3672 205.519024    282.540    8.11165   74.24710 2.9478e+02     0.6681    84.6182     0.1165     0.0197  0.000e+00
      5.898    11.3535 205.669735    282.854    8.11917   74.29251 3.0629e+02     0.6676    84.6281     0.1124     0.0198  0.000e+00
      5.927    11.3412 205.639603    282.908    8.09937   74.09051 2.8807e+02     0.6794    84.3797     0.1067     0.0190  0.000e+00
      5.967    11.3371 205.097089    282.193    8.05627   73.68909 2.7506e+02     0.6820    84.3238     0.1029     0.0192  0.000e+00
      6.017    11.3425 203.981956    280.617    7.99234   73.11311 2.6213e+02     0.6758    84.4554     0.1042     0.0189  0.000e+00
      6.071    11.3452 203.349070    279.726    7.92038   72.45909 2.5397e+02     0.6709    84.5590     0.1140     0.0198  0.000e+00
      6.126    11.3374 202.806619    279.040    7.85430   71.84147 2.7213e+02     0.6818    84.3287     0.1282     0.0193  0.000e+00
      6.181    11.3155 202.354597    278.586    7.80871   71.38837 2.7032e+02     0.6748    84.4768     0.1269     0.0192  0.000e+00
      6.237    11.2853 201.932725    278.236    7.79126   71.17928 2.6814e+02     0.6923    84.1066     0.1209     0.0192  0.000e+00
      6.290    11.2571 201.782071    278.245    7.80526   71.26083 2.5581e+02     0.6742    84.4899     0.1152     0.0205  0.000e+00
      6.341    11.2380 201.691680    278.267    7.84913   71.62992 2.4250e+02     0.6713    84.5491     0.1117     0.0208  0.000e+00
      6.393    11.2216 201.571154    278.227    7.89039   71.97906 2.3974e+02     0.6713    84.5508     0.1121     0.0202  0.000e+00
      6.441    11.2070 201.571165    278.339    7.95272   72.52327 2.4524e+02     0.6704    84.5689     0.1135     0.0202  0.000e+00
      6.485    11.1991 201.631440    278.483    8.01213   73.05183 2.4267e+02     0.6860    84.2399     0.1099     0.0193  0.000e+00
      6.525    11.1979 201.721845    278.617    8.06923   73.57039 2.5170e+02     0.6775    84.4192     0.1097     0.0186  0.000e+00
      6.565    11.2003 201.872517    278.806    8.13418   74.16681 2.3277e+02     0.6874    84.2103     0.1166     0.0184  0.000e+00
      6.600    11.2039 202.354678    279.444    8.19621   74.73879 2.2198e+02     0.6826    84.3123     0.1226     0.0182  0.000e+00
      6.630    11.2132 202.866982    280.080    8.26785   75.40835 2.2323e+02     0.6823    84.3188     0.1201     0.0187  0.000e+00
      6.661    11.2298 203.228610    280.451    8.33201   76.02272 2.2912e+02     0.6752    84.4669     0.1184     0.0185  0.000e+00
      6.694    11.2419 203.469698    280.689    8.39495   76.61841 2.2663e+02     0.6733    84.5080     0.1163     0.0186  0.000e+00
      6.726    11.2462 203.650520    280.906    8.44671   77.09855 2.2194e+02     0.6718    84.5393     0.1153     0.0184  0.000e+00
      6.762    11.2462 203.469697    280.656    8.48386   77.43751 2.0837e+02     0.6938    84.0754     0.1244     0.0179  0.000e+00
      6.805    11.2472 202.866963    279.817    8.49299   77.52239 2.0579e+02     0.6744    84.4850     0.1344     0.0194  0.000e+00
      6.851    11.2492 202.475195    279.262    8.48237   77.42885 2.1028e+02     0.6720    84.5360     0.1334     0.0192  0.000e+00
      6.898    11.2455 202.143709    278.833    8.46715   77.28319 2.1428e+02     0.6798    84.3698     0.1257     0.0191  0.000e+00
      6.948    11.2324 201.751965    278.393    8.44889   77.09322 2.0532e+02     0.6756    84.4587     0.1208     0.0194  0.000e+00
      6.998    11.2139 201.510902    278.203    8.43486   76.93229 1.9945e+02     0.6749    84.4735     0.1188     0.0199  0.000e+00
      7.047    11.1922 201.299979    278.078    8.43934   76.93470 1.8957e+02     0.6750    84.4718     0.1162     0.0200  0.000e+00
      7.100    11.1714 201.058923    277.905    8.45476   77.03820 1.9344e+02     0.6919    84.1165     0.1158     0.0191  0.000e+00
      7.154    11.1532 200.817868    277.712    8.48668   77.29649 2.0135e+02     0.7054    83.8319     0.1176     0.0186  0.000e+00
      7.201    11.1399 200.998678    278.063    8.52669   77.63723 1.9324e+02     0.6796    84.3748     0.1192     0.0190  0.000e+00
      7.240    11.1346 201.239752    278.438    8.56676   77.99259 1.8425e+02     0.6800    84.3665     0.1222     0.0188  0.000e+00
      7.277    11.1400 201.691762    279.022    8.59285   78.23996 1.8006e+02     0.6794    84.3797     0.1302     0.0185  0.000e+00
      7.310    11.1532 202.445132    279.962    8.59813   78.31212 1.7873e+02     0.6793    84.3813     0.1278     0.0181  0.000e+00
      7.342    11.1664 202.867027    280.443    8.58408   78.20813 1.8461e+02     0.6696    84.5853     0.1398     0.0194  0.000e+00
      7.371    11.1715 203.168389    280.820    8.54533   77.86434 1.8289e+02     0.6792    84.3830     0.1369     0.0195  0.000e+00
      7.398    11.1705 203.590308    281.410    8.49159   77.37312 1.7497e+02     0.6791    84.3863     0.1324     0.0187  0.000e+00
      7.422    11.1669 203.740998    281.647    8.41771   76.69353 1.7475e+02     0.6841    84.2794     0.1260     0.0182  0.000e+00
      7.454    11.1629 203.469765    281.303    8.33838   75.96366 1.7168e+02     0.6887    84.1839     0.1275     0.0180  0.000e+00
      7.493    11.1636 202.445128    279.881    8.25071   75.16595 1.6901e+02     0.6862    84.2349     0.1227     0.0191  0.000e+00
      7.540    11.1661 201.812289    278.987    8.16611   74.39918 1.6890e+02     0.6803    84.3600     0.1208     0.0192  0.000e+00
      7.589    11.1612 201.510948    278.608    8.10222   73.80877 1.6683e+02     0.6873    84.2119     0.1218     0.0193  0.000e+00
      7.644    11.1470 201.058949    278.093    8.04921   73.30160 1.6499e+02     0.6850    84.2613     0.1349     0.0194  0.000e+00
      7.699    11.1298 200.878160    277.974    8.02560   73.05767 1.6178e+02     0.6981    83.9849     0.1422     0.0202  0.000e+00
      7.746    11.1165 200.938437    278.160    8.04271   73.19103 1.5904e+02     0.6866    84.2267     0.1375     0.0191  0.000e+00
      7.789    11.1132 201.300044    278.686    8.08885   73.60538 1.5668e+02     0.6775    84.4192     0.1550     0.0191  0.000e+00
      7.826    11.1217 202.173943    279.830    8.15168   74.19193 1.5793e+02     0.6696    84.5853     0.1516     0.0199  0.000e+00
      7.857    11.1360 202.987602    280.846    8.20674   74.71787 1.5904e+02     0.6890    84.1774     0.1475     0.0200  0.000e+00
      7.884    11.1385 203.439652    281.451    8.24742   75.09272 1.5436e+02     0.6859    84.2432     0.1406     0.0208  0.000e+00
      7.916    11.1328 203.409520    281.454    8.27643   75.34690 1.5210e+02     0.6619    84.7482     0.1369     0.0206  0.000e+00
      7.955    11.1286 202.927336    280.819    8.26454   75.23127 1.4811e+02     0.6745    84.4833     0.1361     0.0185  0.000e+00
      7.997    11.1302 202.565703    280.307    8.24166   75.02562 1.4811e+02     0.6841    84.2794     0.1464     0.0185  0.000e+00
      8.040    11.1332 202.445159    280.116    8.17340   74.40943 1.4757e+02     0.6724    84.5261     0.1439     0.0179  0.000e+00
      8.081    11.1359 202.234209    279.804    8.09592   73.70854 1.4484e+02     0.6806    84.3534     0.1492     0.0192  0.000e+00
      8.122    11.1382 202.294479    279.869    8.02502   73.06690 1.4530e+02     0.6795    84.3781     0.1544     0.0197  0.000e+00
      8.160    11.1406 202.565699    280.226    7.95910   72.47083 1.4355e+02     0.6726    84.5228     0.1501     0.0204  0.000e+00
      8.199    11.1453 202.746512    280.440    7.89692   71.91248 1.4140e+02     0.6872    84.2152     0.1451     0.0201  0.000e+00
      8.238    11.1520 202.505421    280.054    7.84769   71.47515 1.3910e+02     0.6890    84.1774     0.1414     0.0208  0.000e+00
      8.281    11.1576 202.354740    279.803    7.80843   71.12664 1.3789e+02     0.6971    84.0063     0.1428     0.0207  0.000e+00
      8.325    11.1590 202.143793    279.500    7.77159   70.79342 1.3962e+02     0.6968    84.0129     0.1588     0.0211  0.000e+00
      8.373    11.1560 201.872581    279.148    7.74966   70.58870 1.3582e+02     0.6860    84.2399     0.1545     0.0213  0.000e+00
      8.419    11.1478 201.782183    279.086    7.70222   70.14333 1.3166e+02     0.6879    84.2004     0.1659     0.0208  0.000e+00
      8.461    11.1381 201.812325    279.203    7.70147   70.12079 1.3000e+02     0.6961    84.0277     0.1553     0.0201  0.000e+00
      8.498    11.1330 202.234219    279.827    7.69249   70.03078 1.3101e+02     0.6761    84.4488     0.1485     0.0200  0.000e+00
      8.532    11.1359 202.686253    280.429    7.69439   70.05299 1.2780e+02     0.6841    84.2794     0.1480     0.0192  0.000e+00
      8.561    11.1443 203.138293    280.989    7.69761   70.09604 1.2608e+02     0.6796    84.3748     0.1458     0.0191  0.000e+00
      8.589    11.1491 203.409522    281.327    7.70418   70.16368 1.2617e+02     0.6794    84.3797     0.1662     0.0217  0.000e+00
      8.620    11.1490 203.439659    281.370    7.70368   70.15900 1.2478e+02     0.6912    84.1313     0.1822     0.0210  0.000e+00
      8.658    11.1501 203.228701    281.069    7.69458   70.07782 1.2313e+02     0.6812    84.3419     0.1740     0.0208  0.000e+00
      8.700    11.1550 203.017742    280.739    7.67523   69.90942 1.2177e+02     0.6678    84.6248     0.1601     0.0205  0.000e+00
      8.747    11.1604 202.354747    279.781    7.64379   69.63161 1.2198e+02     0.6743    84.4866     0.1536     0.0202  0.000e+00
      8.800    11.1588 201.721913    278.918    7.60671   69.29098 1.2009e+02     0.6906    84.1428     0.1519     0.0209  0.000e+00
      8.855    11.1464 201.239775    278.347    7.57291   68.96335 1.1816e+02     0.6791    84.3846     0.1476     0.0204  0.000e+00
      8.910    11.1257 200.787786    277.881    7.55095   68.73040 1.1615e+02     0.6944    84.0639     0.1409     0.0194  0.000e+00
      8.967    11.1051 200.516603    277.664    7.55270   68.71338 1.1416e+02     0.6901    84.1543     0.1422     0.0188  0.000e+00
      9.020    11.0876 200.456350    277.716    7.58690   68.99666 1.1288e+02     0.6866    84.2284     0.1454     0.0191  0.000e+00
      9.065    11.0762 200.938488    278.471    7.64459   69.50325 1.1174e+02     0.6803    84.3600     0.1479     0.0200  0.000e+00
      9.100    11.0804 201.812375    279.650    7.71759   70.17400 1.1170e+02     0.6910    84.1346     0.1474     0.0195  0.000e+00
      9.127    11.0964 202.595882    280.611    7.78351   70.79970 1.1123e+02     0.6891    84.1757     0.1447     0.0193  0.000e+00
      9.149    11.0982 203.108198    281.306    7.83556   71.27640 1.1027e+02     0.6951    84.0491     0.1415     0.0193  0.000e+00
      9.164    11.0956 203.741078    282.203    7.87517   71.63259 1.0966e+02     0.7075    83.7891     0.1371     0.0203  0.000e+00
      9.179    11.1415 204.102702    282.346    7.87243   71.68354 1.0941e+02     0.7074    83.7908     0.1478     0.0197  0.000e+00
      9.200    11.1996 203.650598    281.268    7.83910   71.47568 1.0937e+02     0.6793    84.3813     0.1514     0.0201  0.000e+00
      9.230    11.2433 202.686195    279.598    7.78615   71.06415 1.0769e+02     0.6844    84.2728     0.1492     0.0198  0.000e+00
      9.272    11.2649 201.932796    278.393    7.72877   70.57522 1.0587e+02     0.6780    84.4093     0.1431     0.0204  0.000e+00
      9.324    11.2677 201.119169    277.250    7.67945   70.12917 1.0537e+02     0.6859    84.2432     0.1411     0.0204  0.000e+00
      9.384    11.2463 200.456253    276.499    7.63692   69.70618 1.0470e+02     0.6901    84.1543     0.1403     0.0198  0.000e+00
      9.450    11.1986 200.004299    276.239    7.62032   69.47824 1.0196e+02     0.6841    84.2794     0.1379     0.0200  0.000e+00
      9.515    11.1493 199.733146    276.241    7.62561   69.44743 1.0006e+02     0.6878    84.2020     0.1460     0.0198  0.000e+00
      9.577    11.1109 199.642777    276.410    7.65202   69.62605 9.9007e+01     0.6909    84.1362     0.1514     0.0198  0.000e+00
      9.634    11.0821 199.763323    276.797    7.68810   69.90793 9.8106e+01     0.6993    83.9602     0.1530     0.0201  0.000e+00
      9.683    11.0661 200.094786    277.380    7.72457   70.21375 9.7693e+01     0.6904    84.1478     0.1499     0.0212  0.000e+00
      9.725    11.0665 200.998774    278.630    7.77081   70.63489 9.6362e+01     0.6792    84.3830     0.1482     0.0223  0.000e+00
      9.756    11.0797 202.083602    280.031    7.81752   71.08162 9.5552e+01     0.6889    84.1790     0.1546     0.0220  0.000e+00
      9.780    11.0791 202.565770    280.704    7.88115   71.65925 9.5350e+01     0.6925    84.1033     0.1616     0.0216  0.000e+00
      9.799    11.0639 203.017823    281.449    7.95095   72.26861 9.5334e+01     0.6848    84.2646     0.1682     0.0214  0.000e+00
      9.817    11.0861 203.289039    281.651    8.02883   73.01411 9.4616e+01     0.7225    83.4750     0.1823     0.0218  0.000e+00
      9.836    11.1363 203.168459    281.093    8.07852   73.55104 9.4052e+01     0.7006    83.9323     0.1809     0.0217  0.000e+00
      9.864    11.1685 202.294492    279.635    8.14775   74.23624 9.4267e+01     0.6958    84.0343     0.1909     0.0223  0.000e+00
      9.902    11.1698 201.510986    278.542    8.20532   74.76279 9.3474e+01     0.6843    84.2761     0.1806     0.0205  0.000e+00
      9.944    11.1587 200.938451    277.836    8.25257   75.17383 9.1249e+01     0.6827    84.3090     0.1797     0.0195  0.000e+00
      9.992    11.1471 200.426197    277.216    8.29292   75.52114 8.9785e+01     0.6933    84.0869     0.1804     0.0195  0.000e+00
     10.047    11.1216 200.004361    276.828    8.33755   75.88268 8.8733e+01     0.6946    84.0589     0.1765     0.0207  0.000e+00
     10.101    11.0849 199.823594    276.859    8.39608   76.35061 8.8437e+01     0.7084    83.7694     0.2844     0.0194  0.000e+00
     10.150    11.0579 199.944140    277.234    8.46433   76.92335 8.8344e+01     0.6993    83.9602     0.2616     0.0207  0.000e+00
     10.197    11.0442 199.883886    277.256    8.53770   77.56543 8.6926e+01     0.7178    83.5720     0.2290     0.0200  0.000e+00
     10.246    11.0327 199.944158    277.428    8.59062   78.02554 8.5486e+01     0.6941    84.0704     0.2066     0.0201  0.000e+00
     10.291    11.0198 200.124960    277.778    8.62168   78.28437 8.4559e+01     0.7001    83.9438     0.1990     0.0198  0.000e+00
     10.335    11.0123 200.516689    278.380    8.63049   78.35096 8.3760e+01     0.7090    83.7579     0.1942     0.0185  0.000e+00
     10.378    11.0171 200.576953    278.426    8.60607   78.13791 8.3055e+01     0.7204    83.5194     0.2655     0.0187  0.000e+00
     10.424    11.0231 200.516684    278.297    8.56305   77.75803 8.2314e+01     0.7146    83.6395     0.2576     0.0194  0.000e+00
     10.462    11.0231 200.938549    278.882    8.50564   77.23685 8.1837e+01     0.7089    83.7595     0.2374     0.0198  0.000e+00
     10.492    11.0259 201.571360    279.738    8.44671   76.70703 8.1292e+01     0.7157    83.6164     0.2226     0.0215  0.000e+00
     10.520    11.0271 201.872706    280.147    8.39383   76.22890 8.0199e+01     0.7061    83.8188     0.2049     0.0220  0.000e+00
     10.548    11.0198 202.143927    280.581    8.34944   75.81306 7.9525e+01     0.7122    83.6904     0.1903     0.0208  0.000e+00
     10.574    11.0153 202.354878    280.908    8.31133   75.45929 7.9455e+01     0.7171    83.5885     0.2513     0.0218  0.000e+00
     10.604    11.0382 202.083645    280.354    8.26331   75.06288 7.9245e+01     0.7297    83.3253     0.2439     0.0223  0.000e+00
     10.642    11.0662 201.390531    279.175    8.21680   74.68852 7.8345e+01     0.7153    83.6246     0.2200     0.0232  0.000e+00
     10.688    11.0749 200.817986    278.314    8.16704   74.25089 7.7386e+01     0.7253    83.4174     0.2020     0.0231  0.000e+00
     10.738    11.0657 200.335866    277.717    8.12025   73.80979 7.6749e+01     0.7310    83.2973     0.1955     0.0212  0.000e+00
     10.792    11.0488 200.034554    277.429    8.07897   73.40582 7.5730e+01     0.7292    83.3351     0.1935     0.0208  0.000e+00
     10.847    11.0220 199.823649    277.343    8.06578   73.24051 7.4396e+01     0.7275    83.3713     0.1843     0.0201  0.000e+00
     10.900    10.9920 199.642879    277.323    8.07662   73.28800 7.3344e+01     0.7394    83.1229     0.1771     0.0210  0.000e+00
     10.950    10.9691 199.793553    277.709    8.10648   73.52001 7.2804e+01     0.7384    83.1443     0.1764     0.0204  0.000e+00
     10.995    10.9570 200.125014    278.263    8.15655   73.95348 7.1862e+01     0.7246    83.4305     0.1836     0.0214  0.000e+00
     11.038    10.9595 200.577003    278.872    8.20141   74.36482 7.0833e+01     0.7380    83.1525     0.1862     0.0210  0.000e+00
     11.077    10.9719 200.998861    279.362    8.24099   74.74518 7.0089e+01     0.7214    83.4980     0.1915     0.0213  0.000e+00
     11.110    10.9804 201.571402    280.092    8.26092   74.94084 6.9806e+01     0.7324    83.2693     0.1916     0.0215  0.000e+00
     11.140    10.9768 201.812481    280.456    8.25789   74.90712 6.9354e+01     0.7414    83.0818     0.1835     0.0216  0.000e+00
     11.170    10.9674 201.963162    280.738    8.22737   74.61410 6.9049e+01     0.7332    83.2512     0.1892     0.0209  0.000e+00
     11.199    10.9611 202.113842    280.997    8.17188   74.10014 6.8638e+01     0.7321    83.2743     0.1885     0.0207  0.000e+00
     11.230    10.9702 202.143972    280.968    8.10082   73.47120 6.8036e+01     0.7255    83.4124     0.1973     0.0220  0.000e+00
     11.264    10.9971 201.993279    280.548    8.02340   72.81444 6.7512e+01     0.7295    83.3285     0.1997     0.0220  0.000e+00
     11.302    11.0226 201.571378    279.764    7.94841   72.17618 6.6850e+01     0.7666    82.5587     0.2049     0.0215  0.000e+00
     11.348    11.0308 200.697494    278.488    7.87682   71.53942 6.6043e+01     0.7317    83.2825     0.1965     0.0203  0.000e+00
     11.405    11.0180 199.944189    277.541    7.82031   71.00496 6.5258e+01     0.7396    83.1180     0.1891     0.0209  0.000e+00
     11.467    10.9947 199.582625    277.219    7.77163   70.52485 6.4165e+01     0.7419    83.0703     0.1855     0.0211  0.000e+00
     11.529    10.9636 199.281333    277.039    7.74525   70.23489 6.3514e+01     0.7403    83.1032     0.1839     0.0213  0.000e+00
     11.587    10.9253 199.251228    277.293    7.73853   70.11165 6.3024e+01     0.7398    83.1147     0.1856     0.0220  0.000e+00
     11.637    10.8992 199.703216    278.124    7.74768   70.15230 6.2648e+01     0.7175    83.5786     0.1845     0.0225  0.000e+00
     11.675    10.8974 200.787987    279.649    7.77501   70.39713 6.1903e+01     0.7294    83.3302     0.1830     0.0220  0.000e+00
     11.703    10.9050 201.511194    280.597    7.80730   70.70216 6.1382e+01     0.7329    83.2578     0.1894     0.0212  0.000e+00
     11.721    10.8981 202.234435    281.658    7.83654   70.95582 6.1070e+01     0.7324    83.2677     0.1904     0.0217  0.000e+00
     11.737    10.9233 202.806998    282.257    7.84874   71.10799 6.0888e+01     0.7355    83.2035     0.1920     0.0216  0.000e+00
     11.755    10.9867 202.927502    281.927    7.84074   71.13987 6.0439e+01     0.7298    83.3236     0.2340     0.0223  0.000e+00
     11.782    11.0697 202.234323    280.318    7.81059   71.00208 5.9710e+01     0.7152    83.6279     0.2313     0.0222  0.000e+00
     11.818    11.1256 201.300112    278.591    7.78219   70.83499 5.9187e+01     0.7215    83.4947     0.2335     0.0214  0.000e+00
     11.862    11.1434 200.757697    277.703    7.75106   70.58062 5.8679e+01     0.7242    83.4404     0.2734     0.0213  0.000e+00
     11.912    11.1424 200.215308    276.961    7.72846   70.37291 5.8144e+01     0.7532    82.8367     0.2604     0.0208  0.000e+00
     11.966    11.1181 199.944135    276.771    7.71868   70.24453 5.7402e+01     0.7286    83.3466     0.2370     0.0209  0.000e+00
     12.021    11.0607 199.793514    277.003    7.73903   70.33639 5.6670e+01     0.7261    83.3993     0.2400     0.0200  0.000e+00
     12.076    10.9990 199.582633    277.186    7.78920   70.69124 5.6322e+01     0.7346    83.2233     0.2341     0.0205  0.000e+00
     12.128    10.9544 199.582663    277.529    7.85240   71.19142 5.5544e+01     0.7338    83.2397     0.2195     0.0200  0.000e+00
     12.177    10.9147 199.582690    277.837    7.92238   71.75983 5.5155e+01     0.7486    82.9321     0.2124     0.0201  0.000e+00
     12.222    10.8894 199.884024    278.452    7.98271   72.26407 5.4652e+01     0.7339    83.2364     0.2065     0.0220  0.000e+00
     12.266    10.8866 200.305879    279.061    8.03167   72.70272 5.4040e+01     0.7368    83.1772     0.2066     0.0218  0.000e+00
     12.306    10.8928 200.757869    279.643    8.05635   72.93667 5.3520e+01     0.7314    83.2891     0.2071     0.0218  0.000e+00
     12.341    10.8890 201.149607    280.218    8.06444   73.00358 5.3285e+01     0.7294    83.3302     0.2144     0.0222  0.000e+00
     12.373    10.8754 201.390689    280.660    8.05019   72.85174 5.2911e+01     0.7324    83.2677     0.2168     0.0220  0.000e+00
     12.405    10.8626 201.571503    281.013    8.01678   72.52792 5.2410e+01     0.7289    83.3417     0.2163     0.0220  0.000e+00
     12.434    10.8623 201.872850    281.435    7.97083   72.11180 5.2025e+01     0.7274    83.3730     0.2129     0.0221  0.000e+00
     12.461    10.8963 202.144044    281.547    7.91586   71.67093 5.1787e+01     0.7316    83.2841     0.2099     0.0213  0.000e+00
     12.491    10.9502 202.174144    281.166    7.85486   71.20760 5.1469e+01     0.7262    83.3976     0.2300     0.0216  0.000e+00
     12.524    10.9968 201.963168    280.509    7.80235   70.80782 5.1009e+01     0.7240    83.4437     0.2382     0.0220  0.000e+00
     12.565    11.0221 201.631671    279.852    7.76312   70.49282 5.0287e+01     0.7368    83.1772     0.2403     0.0217  0.000e+00
     12.609    11.0261 201.360460    279.444    7.72895   70.18907 4.9759e+01     0.7218    83.4898     0.2377     0.0211  0.000e+00
     12.657    11.0168 201.059129    279.098    7.70320   69.94016 4.9080e+01     0.7283    83.3549     0.2336     0.0211  0.000e+00
     12.709    10.9990 200.787940    278.859    7.68347   69.73219 4.8241e+01     0.7270    83.3812     0.2227     0.0207  0.000e+00
     12.763    10.9766 200.516758    278.656    7.66688   69.54540 4.7558e+01     0.7287    83.3450     0.2164     0.0219  0.000e+00
     12.813    10.9511 200.516776    278.854    7.65225   69.37178 4.7100e+01     0.7205    83.5161     0.2122     0.0211  0.000e+00
     12.858    10.9307 200.577056    279.096    7.64301   69.25539 4.6712e+01     0.7164    83.6033     0.2062     0.0205  0.000e+00
     12.898    10.9186 200.878396    279.610    7.63781   69.18892 4.6213e+01     0.7124    83.6855     0.2013     0.0204  0.000e+00
     12.936    10.9173 201.300270    280.207    7.62961   69.11271 4.5695e+01     0.7083    83.7727     0.1970     0.0214  0.000e+00
     12.970    10.9237 201.752281    280.786    7.62126   69.04734 4.5367e+01     0.7062    83.8155     0.1996     0.0220  0.000e+00
     12.999    10.9246 201.963225    281.073    7.61187   68.96386 4.5104e+01     0.7083    83.7711     0.2158     0.0201  0.000e+00
     13.030    10.9277 202.113899    281.258    7.60245   68.88351 4.4779e+01     0.7127    83.6789     0.2197     0.0198  0.000e+00
     13.065    10.9557 202.023476    280.913    7.58688   68.78697 4.4473e+01     0.7112    83.7102     0.2195     0.0208  0.000e+00
     13.103    10.9985 201.993313    280.538    7.56746   68.67872 4.4153e+01     0.7140    83.6526     0.2095     0.0202  0.000e+00
     13.143    11.0383 201.782344    279.935    7.54358   68.52509 4.3789e+01     0.7086    83.7645     0.2042     0.0210  0.000e+00
     13.193    11.0609 201.239913    279.008    7.51951   68.34190 4.3230e+01     0.7051    83.8385     0.1945     0.0204  0.000e+00
     13.243    11.0558 200.938580    278.629    7.50331   68.18659 4.2648e+01     0.7012    83.9207     0.1878     0.0200  0.000e+00
     13.294    11.0426 200.998857    278.815    7.49128   68.05647 4.2103e+01     0.6977    83.9931     0.1943     0.0204  0.000e+00
     13.342    11.0310 200.787931    278.612    7.48049   67.94015 4.1610e+01     0.6963    84.0244     0.2335     0.0204  0.000e+00
     13.393    11.0156 200.516745    278.354    7.47895   67.90200 4.1020e+01     0.6919    84.1149     0.2300     0.0211  0.000e+00
     13.440    10.9892 200.577029    278.643    7.46936   67.77346 4.0539e+01     0.6855    84.2497     0.2307     0.0221  0.000e+00
     13.479    10.9585 200.938648    279.383    7.47023   67.73346 4.0085e+01     0.6848    84.2646     0.2321     0.0214  0.000e+00
     13.514    10.9486 201.300260    279.963    7.46948   67.71119 3.9993e+01     0.6777    84.4142     0.4404     0.0207  0.000e+00
     13.542    10.9516 201.661870    280.442    7.47103   67.73000 3.9692e+01     0.6756    84.4587     0.4171     0.0195  0.000e+00
     13.565    10.9540 201.993351    280.885    7.46812   67.70754 3.9462e+01     0.6827    84.3090     0.3778     0.0194  0.000e+00
     13.586    10.9637 202.294698    281.228    7.45691   67.62112 3.9233e+01     0.6755    84.4620     0.3230     0.0196  0.000e+00
     13.611    11.0100 202.174126    280.699    7.43189   67.46643 3.9088e+01     0.6773    84.4241     0.2729     0.0189  0.000e+00
     13.641    11.0609 201.782339    279.760    7.41300   67.37396 3.8766e+01     0.6745    84.4833     0.2422     0.0192  0.000e+00
     13.675    11.0893 201.390573    278.996    7.39540   67.25808 3.8447e+01     0.6730    84.5146     0.2190     0.0195  0.000e+00
     13.719    11.0971 200.998829    278.393    7.37963   67.12671 3.8063e+01     0.6819    84.3254     0.1968     0.0197  0.000e+00
     13.777    11.0896 200.275642    277.450    7.36752   67.00458 3.7557e+01     0.6735    84.5047     0.1863     0.0201  0.000e+00
     13.840    11.0509 199.582633    276.787    7.36056   66.88131 3.7012e+01     0.6783    84.4027     0.1774     0.0195  0.000e+00
     13.907    10.9615 199.070462    276.762    7.37590   66.88220 3.6417e+01     0.6689    84.6018     0.1695     0.0194  0.000e+00
     13.973    10.8675 198.588438    276.816    7.40677   67.01588 3.5882e+01     0.6677    84.6265     0.1662     0.0195  0.000e+00
     14.036    10.7977 198.287185    276.935    7.45714   67.36236 3.5712e+01     0.6678    84.6232     0.1805     0.0196  0.000e+00
     14.089    10.7421 198.468001    277.619    7.51653   67.81147 3.5231e+01     0.6636    84.7136     0.1867     0.0188  0.000e+00
     14.128    10.7143 199.673251    279.522    7.57531   68.29791 3.4885e+01     0.6609    84.7696     0.1788     0.0188  0.000e+00
     14.156    10.7124 200.516957    280.719    7.63923   68.87133 3.4640e+01     0.6606    84.7761     0.2115     0.0182  0.000e+00
     14.176    10.6973 201.089500    281.639    7.71056   69.49018 3.4488e+01     0.6609    84.7696     0.2358     0.0187  0.000e+00
     14.187    10.7173 201.752440    282.409    7.78241   70.17057 3.4264e+01     0.6565    84.8633     0.2229     0.0202  0.000e+00
     14.195    10.7789 201.933208    282.176    7.82635   70.66789 3.4197e+01     0.6550    84.8962     0.2085     0.0227  0.000e+00
     14.205    10.8966 201.571515    280.746    7.84339   71.01528 3.4161e+01     0.6599    84.7910     0.2136     0.0228  0.000e+00
     14.227    11.0024 200.818100    278.875    7.85523   71.29661 3.4089e+01     0.6466    85.0739     0.2047     0.0206  0.000e+00
     14.255    11.0414 200.215418    277.737    7.87182   71.51131 3.3760e+01     0.6489    85.0245     0.2033     0.0202  0.000e+00
     14.300    11.0362 199.462125    276.732    7.91531   71.89762 3.3394e+01     0.6501    84.9999     0.2273     0.0199  0.000e+00
     14.361    11.0091 198.708874    275.895    7.99606   72.58539 3.2874e+01     0.6520    84.9587     0.2249     0.0197  0.000e+00
     14.427    10.9461 198.076191    275.498    8.11418   73.55020 3.2574e+01     0.6511    84.9785     0.2095     0.0203  0.000e+00
     14.503    10.8440 197.413423    275.358    8.29117   74.97677 3.2028e+01     0.6574    84.8452     0.1968     0.0201  0.000e+00
     14.575    10.7483 197.082076    275.632    8.48972   76.60174 3.1507e+01     0.6614    84.7597     0.1946     0.0198  0.000e+00
     14.641    10.6792 196.931483    275.955    8.67545   78.15185 3.1072e+01     0.6578    84.8370     0.1814     0.0201  0.000e+00
     14.698    10.6338 197.112280    276.561    8.83751   79.52771 3.0696e+01     0.6609    84.7712     0.1822     0.0204  0.000e+00
     14.740    10.6104 197.865508    277.800    8.95720   80.56125 3.0470e+01     0.6521    84.9571     0.1772     0.0194  0.000e+00
     14.774    10.5997 198.829668    279.238    9.03118   81.20660 3.0224e+01     0.6524    84.9505     0.1761     0.0194  0.000e+00
     14.794    10.5845 199.432296    280.203    9.06127   81.44866 3.0123e+01     0.6541    84.9143     0.1946     0.0203  0.000e+00
     14.811    10.5644 199.643229    280.658    9.07917   81.57142 2.9996e+01     0.6575    84.8419     0.1896     0.0202  0.000e+00
     14.826    10.5655 199.733624    280.777    9.08080   81.58812 2.9859e+01     0.6551    84.8929     0.1769     0.0196  0.000e+00
     14.846    10.5982 199.462419    280.138    9.08723   81.70796 2.9790e+01     0.6507    84.9867     0.1707     0.0199  0.000e+00
     14.866    10.6192 199.161094    279.550    9.07936   81.67710 2.9560e+01     0.6523    84.9538     0.1690     0.0203  0.000e+00
     14.895    10.6206 198.588614    278.736    9.09523   81.82219 2.9456e+01     0.6485    85.0328     0.1907     0.0193  0.000e+00
     14.940    10.6095 197.865512    277.807    9.10807   81.91641 2.9162e+01     0.6526    84.9472     0.2062     0.0186  0.000e+00
     14.986    10.5919 197.413594    277.310    9.13083   82.08725 2.8784e+01     0.6495    85.0114     0.1932     0.0181  0.000e+00
     15.035    10.5736 197.323221    277.325    9.15347   82.25572 2.8501e+01     0.6579    84.8337     0.2087     0.0182  0.000e+00
     15.088    10.5569 197.112336    277.159    9.17243   82.39387 2.8197e+01     0.6595    84.8008     0.2073     0.0185  0.000e+00
     15.144    10.5420 197.021963    277.148    9.19012   82.52411 2.7846e+01     0.6478    85.0492     0.1908     0.0192  0.000e+00
     15.197    10.5261 196.931591    277.145    9.19526   82.53959 2.7475e+01     0.6548    84.8995     0.1795     0.0202  0.000e+00
     15.250    10.5122 196.780963    277.041    9.18056   82.38096 2.7110e+01     0.6468    85.0690     0.1855     0.0194  0.000e+00
     15.302    10.5008 196.811099    277.173    9.14874   82.07356 2.6702e+01     0.6515    84.9703     0.1787     0.0192  0.000e+00
     15.352    10.4918 196.780978    277.201    9.09815   81.60249 2.6416e+01     0.6526    84.9472     0.1695     0.0185  0.000e+00
     15.403    10.4857 196.811110    277.291    9.03862   81.05711 2.6111e+01     0.6508    84.9851     0.1711     0.0201  0.000e+00
     15.445    10.4804 196.991881    277.587    8.98683   80.58275 2.5936e+01     0.6512    84.9752     0.1951     0.0201  0.000e+00
     15.481    10.4784 197.534190    278.367    8.95294   80.27525 2.5854e+01     0.6599    84.7910     0.1930     0.0188  0.000e+00
     15.513    10.4816 197.955993    278.936    8.92631   80.04272 2.5736e+01     0.6578    84.8354     0.2080     0.0190  0.000e+00
     15.540    10.4824 198.287417    279.397    8.92372   80.02102 2.5595e+01     0.6509    84.9834     0.1990     0.0187  0.000e+00
     15.561    10.4791 198.588718    279.847    8.91755   79.95969 2.5501e+01     0.6516    84.9670     0.1836     0.0194  0.000e+00
     15.576    10.4827 199.161196    280.626    8.90930   79.89257 2.5402e+01     0.6594    84.8025     0.1756     0.0200  0.000e+00
     15.597    10.5135 199.161176    280.383    8.88164   79.70169 2.5259e+01     0.6564    84.8650     0.1751     0.0237  0.000e+00
     15.626    10.5542 198.679061    279.383    8.83223   79.33358 2.4958e+01     0.6544    84.9077     0.1669     0.0239  0.000e+00
     15.673    10.5871 198.106574    278.320    8.76362   78.77750 2.4613e+01     0.6518    84.9637     0.1594     0.0230  0.000e+00
     15.731    10.5966 197.594376    277.527    8.68701   78.10591 2.4268e+01     0.6484    85.0361     0.1558     0.0217  0.000e+00
     15.797    10.5878 197.052074    276.834    8.61710   77.46129 2.3869e+01     0.6517    84.9653     0.1573     0.0202  0.000e+00
     15.861    10.5640 196.780941    276.638    8.56051   76.90982 2.3551e+01     0.6483    85.0377     0.1551     0.0207  0.000e+00
     15.921    10.5387 196.811086    276.877    8.53915   76.67273 2.3415e+01     0.6423    85.1644     0.1522     0.0205  0.000e+00
     15.971    10.5209 196.871353    277.101    8.53589   76.61167 2.3119e+01     0.6538    84.9209     0.1494     0.0208  0.000e+00
     16.010    10.5135 197.745078    278.388    8.55535   76.77336 2.2924e+01     0.6455    85.0969     0.1724     0.0201  0.000e+00
     16.036    10.5111 198.528446    279.510    8.57624   76.95669 2.2771e+01     0.6481    85.0410     0.2315     0.0204  0.000e+00
     16.057    10.5003 199.010539    280.274    8.59935   77.14480 2.2647e+01     0.6441    85.1265     0.2354     0.0201  0.000e+00
     16.079    10.5109 199.100925    280.317    8.59814   77.15314 2.2504e+01     0.6501    84.9999     0.2174     0.0194  0.000e+00
     16.103    10.5534 199.100898    279.983    8.58471   77.10891 2.2357e+01     0.6485    85.0344     0.2000     0.0197  0.000e+00
     16.139    10.6085 198.648905    278.914    8.54929   76.88941 2.2106e+01     0.6485    85.0344     0.1827     0.0208  0.000e+00
     16.189    10.6355 197.955906    277.731    8.51255   76.60681 2.1854e+01     0.6505    84.9916     0.1788     0.0210  0.000e+00
     16.245    10.6330 197.594362    277.243    8.48215   76.32868 2.1632e+01     0.6439    85.1315     0.1730     0.0210  0.000e+00
     16.301    10.6226 197.293085    276.901    8.46563   76.16150 2.1377e+01     0.6505    84.9900     0.2137     0.0213  0.000e+00
     16.352    10.6079 197.172583    276.847    8.48696   76.32711 2.1134e+01     0.6518    84.9637     0.2236     0.0208  0.000e+00
     16.401    10.5844 197.232855    277.114    8.53566   76.72312 2.1018e+01     0.6510    84.9801     0.2043     0.0194  0.000e+00
     16.442    10.5627 197.594411    277.792    8.60506   77.30800 2.0775e+01     0.6579    84.8337     0.1911     0.0190  0.000e+00
     16.480    10.5550 197.895705    278.276    8.68325   77.99644 2.0545e+01     0.6562    84.8699     0.2357     0.0185  0.000e+00
     16.520    10.5535 198.076482    278.541    8.72336   78.35417 2.0358e+01     0.6495    85.0130     0.2439     0.0181  0.000e+00
     16.557    10.5506 198.347651    278.946    8.77915   78.84995 2.0175e+01     0.6509    84.9818     0.2515     0.0180  0.000e+00
     16.590    10.5450 198.528434    279.244    8.79160   78.95159 1.9987e+01     0.6475    85.0558     0.2380     0.0172  0.000e+00
     16.623    10.5363 198.648961    279.482    8.79518   78.96769 1.9861e+01     0.6469    85.0673     0.2087     0.0174  0.000e+00
     16.661    10.5313 198.679095    279.564    8.73061   78.37880 1.9738e+01     0.6519    84.9604     0.2007     0.0172  0.000e+00
     16.695    10.5377 198.829744    279.725    8.67241   77.86797 1.9568e+01     0.6529    84.9406     0.1875     0.0180  0.000e+00
     16.731    10.5611 198.889990    279.626    8.60620   77.31568 1.9393e+01     0.6562    84.8699     0.2406     0.0183  0.000e+00
     16.770    10.5904 198.889972    279.395    8.52571   76.64496 1.9223e+01     0.6557    84.8798     0.2263     0.0191  0.000e+00
     16.811    10.6143 198.889957    279.208    8.46488   76.14042 1.9000e+01     0.6508    84.9851     0.2078     0.0207  0.000e+00
     16.851    10.6299 198.950209    279.170    8.40453   75.62514 1.8936e+01     0.6578    84.8370     0.2040     0.0212  0.000e+00
     16.895    10.6413 198.889941    278.996    8.35292   75.18065 1.8684e+01     0.6559    84.8765     0.1869     0.0218  0.000e+00
     16.942    10.6501 198.769415    278.758    8.31230   74.83038 1.8487e+01     0.6551    84.8929     0.1759     0.0200  0.000e+00
     16.990    10.6508 198.468114    278.331    8.27988   74.53950 1.8247e+01     0.6543    84.9110     0.1669     0.0185  0.000e+00
     17.043    10.6419 198.347601    278.230    8.24261   74.18879 1.8042e+01     0.6574    84.8452     0.1836     0.0211  0.000e+00
     17.092    10.6268 198.166834    278.095    8.21073   73.87566 1.7827e+01     0.6527    84.9439     0.1836     0.0199  0.000e+00
     17.137    10.6104 198.227104    278.308    8.18328   73.60059 1.7617e+01     0.6569    84.8551     0.1736     0.0194  0.000e+00
     17.176    10.5970 198.347633    278.582    8.15141   73.29112 1.7527e+01     0.6666    84.6495     0.1636     0.0192  0.000e+00
     17.215    10.5929 198.528415    278.868    8.12412   73.03883 1.7373e+01     0.6664    84.6544     0.1669     0.0194  0.000e+00
     17.252    10.5945 198.648935    279.025    8.09582   72.78711 1.7229e+01     0.6605    84.7794     0.1659     0.0188  0.000e+00
     17.288    10.5949 198.799587    279.233    8.07196   72.57338 1.7105e+01     0.6644    84.6955     0.1743     0.0201  0.000e+00
     17.325    10.5942 198.829719    279.281    8.04441   72.32452 1.6925e+01     0.6599    84.7910     0.1769     0.0207  0.000e+00
     17.362    10.5933 198.859851    279.330    8.01782   72.08390 1.6797e+01     0.6608    84.7729     0.1846     0.0194  0.000e+00
     17.400    10.5931 198.829721    279.290    7.98752   71.81116 1.6669e+01     0.6589    84.8123     0.2213     0.0188  0.000e+00
     17.438    10.5937 198.859852    279.327    7.95592   71.52814 1.6514e+01     0.6663    84.6561     0.2224     0.0193  0.000e+00
     17.482    10.5957 198.769460    279.185    7.93000   71.29831 1.6328e+01     0.6640    84.7054     0.1980     0.0188  0.000e+00
     17.526    10.5970 198.588678    278.920    7.89382   70.97525 1.6185e+01     0.6601    84.7877     0.1752     0.0200  0.000e+00
     17.569    10.5959 198.588680    278.929    7.85910   70.66121 1.5966e+01     0.6619    84.7482     0.1621     0.0198  0.000e+00
     17.611    10.5940 198.679073    279.071    7.83966   70.48339 1.5854e+01     0.6647    84.6906     0.1540     0.0204  0.000e+00
     17.649    10.5939 198.829725    279.283    7.80356   70.15863 1.5684e+01     0.6623    84.7400     0.1536     0.0207  0.000e+00
     17.685    10.5959 198.950247    279.437    7.77767   69.92910 1.5526e+01     0.6624    84.7383     0.1642     0.0202  0.000e+00
     17.721    10.5984 198.950246    279.417    7.74377   69.62838 1.5406e+01     0.6661    84.6594     0.1722     0.0200  0.000e+00
     17.763    10.6011 198.950245    279.396    7.72186   69.43576 1.5214e+01     0.6629    84.7284     0.1736     0.0211  0.000e+00
     17.806    10.6039 198.799591    279.162    7.69438   69.19314 1.5107e+01     0.6629    84.7284     0.1688     0.0211  0.000e+00
     17.848    10.6053 198.528419    278.771    7.67036   68.97931 1.4984e+01     0.6644    84.6972     0.2419     0.0204  0.000e+00
     17.898    10.6039 198.287382    278.443    7.64707   68.76757 1.4845e+01     0.6618    84.7515     0.3277     0.0203  0.000e+00
     17.947    10.5968 198.046352    278.160    7.62603   68.56692 1.4665e+01     0.6603    84.7827     0.2958     0.0197  0.000e+00
     17.993    10.5789 197.865589    278.046    7.60693   68.36661 1.4505e+01     0.6699    84.5787     0.2840     0.0196  0.000e+00
     18.043    10.5569 197.714959    278.006    7.59255   68.20238 1.4344e+01     0.6690    84.5985     0.3171     0.0191  0.000e+00
     18.086    10.5343 197.805361    278.311    7.57746   68.03095 1.4228e+01     0.6724    84.5261     0.3075     0.0185  0.000e+00
     18.122    10.5148 197.895762    278.591    7.57443   67.97284 1.4108e+01     0.6696    84.5853     0.2777     0.0196  0.000e+00
     18.158    10.5054 198.166932    279.046    7.58016   68.00956 1.3959e+01     0.6666    84.6495     0.2480     0.0210  0.000e+00
     18.189    10.5070 198.287450    279.203    7.58559   68.06078 1.3890e+01     0.6686    84.6067     0.2162     0.0202  0.000e+00
     18.218    10.5106 198.377837    279.302    7.59092   68.11444 1.3765e+01     0.6761    84.4488     0.2205     0.0211  0.000e+00
     18.254    10.5101 198.227190    279.094    7.59405   68.14166 1.3634e+01     0.6756    84.4587     0.2100     0.0196  0.000e+00
     18.298    10.5062 198.106675    278.955    7.59495   68.14345 1.3557e+01     0.6797    84.3731     0.1984     0.0192  0.000e+00
     18.340    10.5002 197.805388    278.578    7.58899   68.08039 1.3409e+01     0.6722    84.5310     0.1839     0.0192  0.000e+00
     18.387    10.4895 197.534237    278.280    7.57001   67.89305 1.3261e+01     0.6672    84.6363     0.1718     0.0191  0.000e+00
     18.440    10.4706 197.323351    278.131    7.55313   67.71176 1.3132e+01     0.6734    84.5064     0.1705     0.0192  0.000e+00
     18.490    10.4490 197.052213    277.918    7.53217   67.48965 1.2948e+01     0.6712    84.5524     0.1858     0.0191  0.000e+00
     18.540    10.4248 196.961846    277.981    7.52142   67.35515 1.2791e+01     0.6766    84.4373     0.1989     0.0199  0.000e+00
     18.582    10.4030 197.052244    278.280    7.52653   67.36662 1.2662e+01     0.6788    84.3912     0.1989     0.0195  0.000e+00
     18.619    10.3943 197.172762    278.518    7.54333   67.50334 1.2551e+01     0.6749    84.4735     0.1815     0.0192  0.000e+00
     18.652    10.3961 197.413787    278.844    7.58035   67.83765 1.2434e+01     0.6835    84.2925     0.1653     0.0185  0.000e+00
     18.684    10.4015 197.594556    279.057    7.62296   68.22762 1.2309e+01     0.6817    84.3304     0.1579     0.0200  0.000e+00
     18.718    10.4039 197.654812    279.123    7.66089   68.57090 1.2226e+01     0.6878    84.2020     0.1869     0.0208  0.000e+00
     18.751    10.4021 197.594557    279.052    7.69125   68.83980 1.2123e+01     0.6810    84.3452     0.3331     0.0205  0.000e+00
     18.790    10.3994 197.293274    278.648    7.69870   68.90199 1.2082e+01     0.6796    84.3748     0.3073     0.0204  0.000e+00
     18.832    10.3955 197.112509    278.424    7.69767   68.88642 1.1969e+01     0.6793    84.3813     0.2826     0.0202  0.000e+00
     18.872    10.3886 197.052258    278.393    7.67166   68.64261 1.1839e+01     0.6785    84.3978     0.2943     0.0188  0.000e+00
     18.918    10.3808 196.931753    278.284    7.64701   68.40946 1.1722e+01     0.6803    84.3600     0.2603     0.0175  0.000e+00
     18.958    10.3726 196.931759    278.348    7.60382   68.01011 1.1582e+01     0.6777    84.4159     0.2243     0.0183  0.000e+00
     19.002    10.3652 196.781126    278.193    7.57213   67.71490 1.1445e+01     0.6787    84.3945     0.2019     0.0180  0.000e+00
     19.050    10.3587 196.660622    278.074    7.54488   67.46094 1.1312e+01     0.6738    84.4965     0.1851     0.0185  0.000e+00
     19.102    10.3481 196.359358    277.731    7.53632   67.36753 1.1180e+01     0.6809    84.3484     0.1774     0.0182  0.000e+00
     19.160    10.3309 196.088230    277.483    7.53292   67.30998 1.1023e+01     0.6793    84.3813     0.1823     0.0184  0.000e+00
     19.220    10.3134 195.877358    277.322    7.55171   67.45025 1.0878e+01     0.6827    84.3090     0.1763     0.0182  0.000e+00
     19.272    10.3005 195.817115    277.338    7.59018   67.77337 1.0740e+01     0.6833    84.2975     0.1859     0.0181  0.000e+00
     19.316    10.2918 196.118384    277.833    7.66235   68.40380 1.0651e+01     0.6879    84.2004     0.1945     0.0184  0.000e+00
     19.352    10.2904 196.720926    278.698    7.75902   69.26483 1.0604e+01     0.6819    84.3271     0.2284     0.0190  0.000e+00
     19.381    10.2943 196.931817    278.966    7.85230   70.10387 1.0555e+01     0.6799    84.3682     0.2332     0.0189  0.000e+00
     19.401    10.2925 197.233098    279.407    7.93818   70.86771 1.0471e+01     0.6809    84.3468     0.2045     0.0187  0.000e+00
     19.418    10.2878 197.413871    279.700    8.00920   71.49410 1.0439e+01     0.6823    84.3172     0.1823     0.0193  0.000e+00
     19.441    10.2948 197.172841    279.303    8.04459   71.82166 1.0367e+01     0.6773    84.4241     0.1701     0.0205  0.000e+00
     19.475    10.3132 196.841424    278.689    8.04434   71.85023 1.0269e+01     0.6749    84.4735     0.2090     0.0195  0.000e+00
     19.519    10.3227 196.600399    278.272    8.01130   71.57101 1.0162e+01     0.6809    84.3484     0.2372     0.0191  0.000e+00
     19.568    10.3224 196.238876    277.763    7.96313   71.13997 1.0058e+01     0.6846    84.2695     0.2201     0.0194  0.000e+00
     19.623    10.3149 195.817112    277.225    7.90801   70.63514 9.9621e+00     0.6877    84.2037     0.2046     0.0188  0.000e+00
     19.678    10.3001 195.666493    277.128    7.85805   70.16439 9.8235e+00     0.6915    84.1247     0.2589     0.0179  0.000e+00
     19.734    10.2827 195.546001    277.094    7.83082   69.89274 9.6988e+00     0.6862    84.2349     0.2403     0.0183  0.000e+00
     19.791    10.2674 195.395384    277.000    7.84181   69.96583 9.5656e+00     0.6813    84.3386     0.2098     0.0193  0.000e+00
     19.845    10.2549 195.305017    276.971    7.86537   70.15529 9.5097e+00     0.6814    84.3369     0.1861     0.0188  0.000e+00
     19.891    10.2451 195.515902    277.347    7.91531   70.58471 9.4007e+00     0.6820    84.3238     0.1707     0.0184  0.000e+00
     19.927    10.2428 195.877416    277.878    7.97825   71.14222 9.3110e+00     0.6873    84.2119     0.1836     0.0185  0.000e+00
     19.966    10.2457 195.967794    277.983    8.05262   71.81037 9.2108e+00     0.6859    84.2415     0.1920     0.0187  0.000e+00
     20.002    10.2475 196.299185    278.439    8.14042   72.59642 9.1230e+00     0.6832    84.2991     0.1949     0.0185  0.000e+00
     20.032    10.2475 196.660711    278.952    8.24173   73.49996 9.0713e+00     0.6844    84.2728     0.1850     0.0182  0.000e+00
     20.061    10.2442 196.781223    279.149    8.34605   74.42453 9.0119e+00     0.6854    84.2530     0.1674     0.0183  0.000e+00
     20.088    10.2390 196.961993    279.447    8.44856   75.32951 8.9323e+00     0.6862    84.2366     0.1615     0.0185  0.000e+00
     20.116    10.2350 196.992124    279.521    8.55110   76.23681 8.8770e+00     0.6829    84.3057     0.1659     0.0179  0.000e+00
     20.144    10.2389 197.112634    279.661    8.62985   76.94587 8.8188e+00     0.6851    84.2580     0.1632     0.0184  0.000e+00
     20.179    10.2537 197.022241    279.415    8.68174   77.43537 8.7595e+00     0.6876    84.2070     0.1540     0.0185  0.000e+00
     20.219    10.2693 196.660700    278.779    8.70356   77.65832 8.6806e+00     0.6932    84.0885     0.1596     0.0187  0.000e+00
     20.269    10.2744 196.359427    278.312    8.70499   77.68023 8.6069e+00     0.6860    84.2399     0.1868     0.0192  0.000e+00
     20.324    10.2696 195.997911    277.838    8.69039   77.54096 8.4840e+00     0.6941    84.0704     0.1984     0.0189  0.000e+00
     20.382    10.2608 195.606279    277.351    8.65668   77.22421 8.3776e+00     0.6992    83.9635     0.2026     0.0184  0.000e+00
     20.445    10.2490 195.365282    277.102    8.64072   77.06052 8.2624e+00     0.6940    84.0721     0.1865     0.0188  0.000e+00
     20.497    10.2367 195.365291    277.199    8.63481   76.98563 8.1559e+00     0.6897    84.1626     0.1814     0.0180  0.000e+00
     20.549    10.2296 195.305046    277.169    8.64928   77.10184 8.0737e+00     0.6975    83.9981     0.1792     0.0184  0.000e+00
     20.596    10.2268 195.455676    277.405    8.67395   77.31671 7.9526e+00     0.6913    84.1280     0.1816     0.0182  0.000e+00
     20.630    10.2273 195.817186    277.914    8.70551   77.59903 7.9160e+00     0.6890    84.1774     0.1781     0.0181  0.000e+00
     20.663    10.2330 196.178700    278.383    8.71598   77.70281 7.8306e+00     0.6986    83.9750     0.1701     0.0183  0.000e+00
     20.690    10.2348 196.419714    278.710    8.71310   77.68046 7.7737e+00     0.7001    83.9438     0.1729     0.0182  0.000e+00
     20.717    10.2309 196.600480    278.997    8.69348   77.49862 7.7118e+00     0.7037    83.8681     0.1693     0.0177  0.000e+00
     20.740    10.2256 196.720993    279.211    8.65137   77.11358 7.7022e+00     0.7049    83.8434     0.1609     0.0188  0.000e+00
     20.768    10.2218 196.781251    279.326    8.58294   76.49685 7.6612e+00     0.7006    83.9323     0.1556     0.0191  0.000e+00
     20.798    10.2237 196.600486    279.054    8.51106   75.85960 7.5866e+00     0.6981    83.9849     0.1632     0.0190  0.000e+00
     20.841    10.2271 196.178707    278.429    8.43083   75.15027 7.5181e+00     0.7021    83.9027     0.2280     0.0192  0.000e+00
     20.884    10.2280 195.937695    278.080    8.35882   74.50984 7.4251e+00     0.7002    83.9405     0.2328     0.0182  0.000e+00
     20.935    10.2267 195.606311    277.620    8.29054   73.89879 7.3163e+00     0.7052    83.8369     0.2216     0.0178  0.000e+00
     20.987    10.2236 195.365308    277.302    8.24341   73.47337 7.2334e+00     0.7040    83.8615     0.1955     0.0184  0.000e+00
     21.044    10.2165 195.124312    277.016    8.22119   73.26312 7.1337e+00     0.7025    83.8928     0.1716     0.0183  0.000e+00
     21.099    10.2080 195.094193    277.040    8.22731   73.30292 7.0542e+00     0.6970    84.0079     0.1716     0.0188  0.000e+00
     21.146    10.2013 195.003823    276.964    8.25931   73.57656 6.9730e+00     0.7039    83.8632     0.2001     0.0192  0.000e+00
     21.197    10.1954 195.033953    277.054    8.31870   74.09534 6.8928e+00     0.7035    83.8714     0.1910     0.0198  0.000e+00
     21.240    10.1898 195.064082    277.141    8.37871   74.61999 6.8256e+00     0.7064    83.8105     0.2345     0.0199  0.000e+00
     21.281    10.1867 195.033960    277.123    8.43236   75.09235 6.8001e+00     0.7054    83.8319     0.2940     0.0201  0.000e+00
     21.323    10.1854 195.124337    277.261    8.47039   75.42869 6.7266e+00     0.7140    83.6526     0.2636     0.0192  0.000e+00
     21.363    10.1833 195.064088    277.192    8.48758   75.57802 6.6658e+00     0.6993    83.9602     0.2212     0.0196  0.000e+00
     21.403    10.1802 195.154466    277.345    8.49993   75.68261 6.5938e+00     0.6999    83.9471     0.1893     0.0184  0.000e+00
     21.439    10.1779 195.124343    277.320    8.50312   75.70682 6.5609e+00     0.6985    83.9767     0.1736     0.0175  0.000e+00
     21.481    10.1769 195.033970    277.200    8.51386   75.80062 6.4819e+00     0.7075    83.7875     0.1617     0.0189  0.000e+00
     21.527    10.1752 194.943597    277.085    8.52803   75.92383 6.4141e+00     0.6963    84.0244     0.1716     0.0191  0.000e+00
     21.569    10.1720 195.003849    277.196    8.54947   76.10895 6.3595e+00     0.6945    84.0606     0.1695     0.0191  0.000e+00
     21.617    10.1677 194.943603    277.143    8.58045   76.37713 6.2683e+00     0.6941    84.0704     0.1808     0.0200  0.000e+00
     21.663    10.1627 194.823108    277.012    8.61483   76.67407 6.2193e+00     0.7017    83.9109     0.2168     0.0196  0.000e+00
     21.706    10.1572 194.883362    277.141    8.65500   77.02163 6.1630e+00     0.6947    84.0573     0.1979     0.0202  0.000e+00
     21.744    10.1537 195.094239    277.468    8.69079   77.33380 6.1029e+00     0.7024    83.8944     0.1749     0.0198  0.000e+00
     21.775    10.1544 195.244865    277.677    8.71400   77.54176 6.0779e+00     0.7032    83.8796     0.1646     0.0185  0.000e+00
     21.808    10.1571 195.305115    277.741    8.72911   77.68107 6.0303e+00     0.7092    83.7530     0.1597     0.0182  0.000e+00
     21.839    10.1588 195.485867    277.985    8.72681   77.66369 5.9971e+00     0.7119    83.6970     0.1556     0.0189  0.000e+00
     21.868    10.1586 195.606371    278.158    8.71119   77.52455 5.9725e+00     0.7147    83.6378     0.2274     0.0198  0.000e+00
     21.908    10.1575 195.425618    277.910    8.67299   77.18233 5.8963e+00     0.7186    83.5572     0.2528     0.0208  0.000e+00
     21.954    10.1570 195.124366    277.485    8.62527   76.75678 5.8460e+00     0.7175    83.5802     0.2329     0.0197  0.000e+00
     22.011    10.1555 194.883368    277.154    8.55306   76.11147 5.7631e+00     0.7241    83.4421     0.2103     0.0202  0.000e+00
     22.074    10.1493 194.642377    276.860    8.48200   75.46795 5.6905e+00     0.7259    83.4042     0.2016     0.0193  0.000e+00
     22.140    10.1366 194.401392    276.617    8.41618   74.86005 5.6138e+00     0.7226    83.4733     0.2008     0.0194  0.000e+00
     22.204    10.1161 194.311034    276.651    8.36907   74.40504 5.5243e+00     0.7348    83.2183     0.1859     0.0211  0.000e+00
     22.257    10.0950 194.401420    276.946    8.34230   74.13024 5.4575e+00     0.7470    82.9650     0.2077     0.0199  0.000e+00
     22.299    10.0827 194.491801    277.171    8.35285   74.20263 5.4206e+00     0.7449    83.0094     0.2021     0.0197  0.000e+00
     22.335    10.0810 194.732798    277.528    8.36923   74.34532 5.3916e+00     0.7525    82.8515     0.1858     0.0192  0.000e+00
     22.368    10.0860 195.124419    278.047    8.39210   74.55727 5.3484e+00     0.7595    82.7067     0.1724     0.0171  0.000e+00
     22.394    10.0883 195.365420    278.372    8.41060   74.72589 5.3132e+00     0.7638    82.6179     0.1624     0.0174  0.000e+00
     22.428    10.0852 195.365423    278.396    8.42011   74.80492 5.2753e+00     0.7572    82.7528     0.1559     0.0175  0.000e+00
     22.460    10.0809 195.244924    278.259    8.41385   74.74153 5.2302e+00     0.7600    82.6952     0.1652     0.0175  0.000e+00
     22.503    10.0778 194.943676    277.854    8.39670   74.58364 5.1828e+00     0.7623    82.6492     0.2038     0.0175  0.000e+00
     22.545    10.0765 194.732805    277.564    8.36830   74.32915 5.1238e+00     0.7635    82.6245     0.2036     0.0192  0.000e+00
     22.586    10.0760 194.823180    277.696    8.35293   74.19184 5.0727e+00     0.7634    82.6261     0.2153     0.0194  0.000e+00
     22.623    10.0729 194.823182    277.721    8.35114   74.17057 5.0320e+00     0.7679    82.5324     0.2126     0.0202  0.000e+00
     22.665    10.0692 194.732812    277.622    8.36958   74.32772 4.9623e+00     0.7670    82.5505     0.3438     0.0204  0.000e+00
     22.703    10.0657 194.823189    277.778    8.40996   74.68021 4.9207e+00     0.7595    82.7067     0.3545     0.0199  0.000e+00
     22.739    10.0629 194.943690    277.972    8.44778   75.01122 4.9005e+00     0.7607    82.6804     0.2867     0.0208  0.000e+00
     22.787    10.0627 194.702694    277.630    8.49469   75.42724 4.8611e+00     0.7650    82.5932     0.2317     0.0203  0.000e+00
     22.840    10.0585 194.401454    277.234    8.52816   75.71693 4.7817e+00     0.8050    81.7707     0.2075     0.0194  0.000e+00
     22.896    10.0466 194.371339    277.285    8.55635   75.94587 4.7196e+00     0.8652    80.5485     0.2110     0.0200  0.000e+00
     22.947    10.0241 194.311106    277.377    8.57713   76.09009 4.6699e+00     0.9188    79.4776     0.2013     0.0211  0.000e+00
     22.995     9.9624 194.250898    277.781    8.60720   76.24583 4.6126e+00     0.9841    78.1912     0.1876     0.0206  0.000e+00
     23.044     9.9144 194.220805    278.120    8.63451   76.40135 4.5526e+00     1.0331    77.2388     0.1814     0.0206  0.000e+00
     23.086     9.8831 194.311197    278.499    8.65200   76.49962 4.5023e+00     1.0702    76.5248     0.1678     0.0204  0.000e+00
     23.124     9.8407 194.461845    279.054    8.67551   76.63091 4.4693e+00     1.0952    76.0478     0.1579     0.0198  0.000e+00
     23.162     9.8235 194.642603    279.451    8.67792   76.62101 4.4294e+00     1.1318    75.3552     0.1497     0.0214  0.000e+00
     23.198     9.8288 194.552227    279.279    8.66162   76.48658 4.3772e+00     1.1446    75.1151     0.1916     0.0231  0.000e+00
     23.237     9.8116 194.582363    279.460    8.63213   76.19524 4.3428e+00     1.1682    74.6726     0.2036     0.0232  0.000e+00
     23.278     9.7904 194.552253    279.588    8.58361   75.72895 4.3032e+00     1.2140    73.8237     0.2155     0.0231  0.000e+00
     23.319     9.7779 194.401640    279.471    8.52112   75.15548 4.2518e+00     1.2571    73.0325     0.1965     0.0230  0.000e+00
     23.364     9.7597 194.311280    279.488    8.45936   74.57856 4.1889e+00     1.2914    72.4090     0.2010     0.0237  0.000e+00
     23.411     9.7417 194.220921    279.503    8.38582   73.89869 4.1351e+00     1.3183    71.9221     0.2409     0.0221  0.000e+00
     23.455     9.7147 194.130567    279.590    8.32419   73.30891 4.0782e+00     1.3190    71.9106     0.3608     0.0231  0.000e+00
     23.498     9.6725 194.160718    279.974    8.28239   72.86785 4.0150e+00     1.2903    72.4288     0.3368     0.0237  0.000e+00
     23.534     9.6394 194.190864    280.285    8.24973   72.52366 3.9633e+00     1.3096    72.0800     0.2929     0.0228  0.000e+00
     23.567     9.6188 194.311373    280.625    8.23970   72.40018 3.9215e+00     1.3216    71.8629     0.2639     0.0234  0.000e+00
     23.600     9.6080 194.552374    281.062    8.23625   72.35132 3.8745e+00     1.3298    71.7165     0.2417     0.0228  0.000e+00
     23.631     9.6032 194.672875    281.275    8.24320   72.40416 3.8281e+00     1.3347    71.6293     0.2560     0.0223  0.000e+00
     23.671     9.5959 194.371637    280.898    8.24358   72.39496 3.7740e+00     1.3270    71.7675     0.4446     0.0225  0.000e+00
     23.712     9.5737 194.160785    280.774    8.24463   72.36590 3.7160e+00     1.3123    72.0307     0.5342     0.0240  0.000e+00
     23.758     9.5345 193.949945    280.788    8.24400   72.29306 3.6827e+00     1.3178    71.9320     0.4930     0.0231  0.000e+00
     23.813     9.4890 193.437882    280.415    8.23609   72.14563 3.6098e+00     1.3178    71.9320     0.5035     0.0217  0.000e+00
     23.868     9.4019 192.865613    280.294    8.23486   71.98535 3.5389e+00     1.3151    71.9813     0.4343     0.0223  0.000e+00
     23.928     9.2923 192.383738    280.488    8.23906   71.83403 3.4694e+00     1.3265    71.7757     0.3615     0.0220  0.000e+00
     23.985     9.2055 191.691016    280.187    8.26435   71.90535 3.3932e+00     1.3159    71.9665     0.3149     0.0217  0.000e+00
     24.039     9.1368 191.329621    280.222    8.30904   72.17531 3.3223e+00     1.3002    72.2495     0.3895     0.0215  0.000e+00
     24.082     9.0771 191.660978    281.199    8.36362   72.54590 3.2675e+00     1.3156    71.9715     0.3675     0.0211  0.000e+00
     24.116     9.0516 192.444134    282.560    8.42640   73.04599 3.2317e+00     1.3203    71.8876     0.3163     0.0266  0.000e+00
     24.146     9.0496 192.895961    283.239    8.48598   73.55914 3.1957e+00     1.3167    71.9517     0.2734     0.0287  0.000e+00
     24.174     9.0408 193.498416    284.197    8.53755   73.99086 3.1584e+00     1.3253    71.7971     0.2847     0.0274  0.000e+00
     24.195     9.0246 193.799657    284.775    8.56918   74.23630 3.1231e+00     1.3183    71.9221     0.3394     0.0266  0.000e+00
     24.223     9.0027 193.769548    284.915    8.59283   74.40195 3.0866e+00     1.3259    71.7872     0.8085     0.0251  0.000e+00
     24.255     8.9871 193.377960    284.469    8.58688   74.32257 3.0555e+00     1.3410    71.5158     0.7765     0.0242  0.000e+00
     24.296     8.9815 192.594789    283.364    8.57724   74.22884 3.0023e+00     1.3461    71.4253     0.6190     0.0253  0.000e+00
     24.347     8.9759 191.962250    282.480    8.55905   74.06133 2.9462e+00     1.3265    71.7757     0.4874     0.0248  0.000e+00
     24.396     8.9675 191.329732    281.619    8.55556   74.01595 2.8933e+00     1.3192    71.9073     0.4099     0.0244  0.000e+00
     24.452     8.9388 190.606890    280.792    8.56898   74.08088 2.8151e+00     1.3392    71.5487     0.3362     0.0225  0.000e+00
     24.504     8.9006 190.245494    280.575    8.61548   74.41446 2.7489e+00     1.3405    71.5240     0.3485     0.0235  0.000e+00
     24.553     8.8707 190.155159    280.690    8.68937   74.99873 2.6989e+00     1.3474    71.4023     0.3835     0.0233  0.000e+00
     24.606     8.8472 189.884114    280.485    8.78158   75.75166 2.6517e+00     1.3378    71.5734     0.4927     0.0239  0.000e+00
     24.651     8.8264 189.793775    280.523    8.87990   76.56151 2.5874e+00     1.3500    71.3546     0.4092     0.0240  0.000e+00
     24.696     8.8122 189.944373    280.864    8.95546   77.18660 2.5649e+00     1.3622    71.1375     0.3481     0.0237  0.000e+00
     24.723     8.8105 190.847926    282.214    9.01014   77.65502 2.5278e+00     1.3425    71.4895     0.3944     0.0217  0.000e+00
     24.745     8.8172 191.751513    283.494    9.04812   77.99527 2.5062e+00     1.3500    71.3546     0.5246     0.0215  0.000e+00
     24.760     8.8169 192.263565    284.254    9.06641   78.15257 2.4799e+00     1.3475    71.4007     0.5550     0.0239  0.000e+00
     24.771     8.8080 192.384056    284.507    9.07479   78.20802 2.4614e+00     1.3025    72.2067     0.4952     0.0580  0.000e+00
     24.781     8.8174 191.480432    283.092    9.04634   77.98017 2.4466e+00     1.2991    72.2692     0.3991     0.4278  0.000e+00
     24.791     8.8382 190.908148    282.072    9.00338   77.64845 2.4108e+00     1.3394    71.5438     0.3487     0.5190  0.000e+00
     24.803     8.8447 190.546718    281.484    8.94872   77.18909 2.3780e+00     1.3361    71.6030     0.3027     0.3822  0.000e+00
     24.816     8.8454 190.426243    281.300    8.89703   76.74448 2.3482e+00     1.3304    71.7050     0.3053     0.2552  0.000e+00
     24.842     8.8467 190.516599    281.422    8.85574   76.39081 2.2939e+00     1.3406    71.5224     0.3105     0.1669  0.000e+00
     24.871     8.8464 190.606955    281.558    8.82343   76.11155 2.2306e+00     1.3663    71.0651     0.2877     0.1098  0.000e+00
     24.893     8.8461 190.727431    281.739    8.80685   75.96803 2.1678e+00     1.4653    69.3280     0.3144     0.0747  0.000e+00
     24.904     8.8467 190.847906    281.912    8.80104   75.91896 2.1163e+00     1.5403    68.0399     0.4354     0.0533  0.000e+00
     24.909     8.8483 190.938263    282.032    8.80569   75.96198 2.0786e+00     1.4864    68.9628     0.6335     0.0394  0.000e+00
     24.911     8.8507 191.028619    282.146    8.78741   75.80873 2.0619e+00     1.4425    69.7244     1.5541     0.0307  0.000e+00
     24.913     8.8531 191.118976    282.260    8.76353   75.60704 2.0449e+00     1.4191    70.1324     2.0330     0.0251  0.000e+00
     24.913     8.8556 191.209333    282.372    8.72497   75.27908 2.0202e+00     1.3660    71.0700     2.0230     0.0232  0.000e+00
     24.912     8.8582 191.239451    282.394    8.67445   74.84787 2.0106e+00     1.3963    70.5337     2.6232     0.0202  0.000e+00
     24.910     8.8609 191.359928    282.550    8.61439   74.33438 1.9918e+00     2.1622    58.2423     2.8709     0.0184  0.000e+00
     24.908     8.8637 191.450285    282.660    8.54993   73.78314 1.9875e+00     2.8431    49.1257     2.7938     0.0173  0.000e+00
     24.902     8.8666 191.540643    282.769    8.49688   73.33064 1.9620e+00     6.9755    17.4842     2.8563     0.0163  0.000e+00
     24.898     8.8700 191.600881    282.830    8.44778   72.91274 1.9365e+00    13.9675     3.0444     2.7092     0.0150  0.000e+00
     24.896     8.8738 191.691239    282.931    8.41392   72.62719 1.9191e+00    20.4318     0.6048     3.0023     0.0149  0.000e+00
     24.895     8.8781 191.781598    283.029    8.38572   72.39125 1.9223e+00    25.5732     0.1673     3.1705     0.0156  0.000e+00
     24.895     8.8823 191.871956    283.127    8.35428   72.12724 1.9156e+00    28.4378     0.0817     2.9920     0.0166  0.000e+00
     24.895     8.8866 191.902074    283.136    8.33703   71.98562 1.9040e+00    29.8754     0.0571     3.0388     0.0172  0.000e+00
     24.895     8.8905 191.962313    283.192    8.31186   71.77503 1.9093e+00    31.5737     0.0373     3.1952     0.0171  0.000e+00
     24.895     8.8942 192.022552    283.250    8.29630   71.64702 1.9093e+00    32.5696     0.0291     3.3758     0.0169  0.000e+00
     24.894     8.8977 192.022550    283.221    8.27287   71.45076 1.8935e+00    31.9428     0.0340     3.6150     0.0179  0.000e+00
     24.894     8.9011 192.143031    283.370    8.25754   71.32425 1.9054e+00    32.1410     0.0324     3.8390     0.0184  0.000e+00
     24.894     8.9045 192.112908    283.297    8.23471   71.13285 1.9026e+00    33.8986     0.0209     4.1588     0.0172  0.000e+00
     24.894     8.9079 192.203269    283.402    8.22313   71.03868 1.8890e+00    33.5951     0.0225     4.0173     0.0167  0.000e+00
     24.894     8.9112 192.233388    283.419    8.21076   70.93734 1.8949e+00    33.3131     0.0242     3.1613     0.0172  0.000e+00
     24.895     8.9145 192.323749    283.525    8.18241   70.69803 1.8900e+00    33.3131     0.0242     2.6306     0.0172  0.000e+00
     24.894     8.9178 192.263505    283.408    8.16352   70.54048 1.8904e+00    33.3131     0.0242     2.8259     0.0167  0.000e+00
     24.895     8.9208 192.293624    283.427    8.13710   70.31736 1.8931e+00    33.3131     0.0242     2.7060     0.0161  0.000e+00
     24.895     8.9240 192.323743    283.445    8.11378   70.12117 1.8904e+00    34.2270     0.0192     2.1582     0.0163  0.000e+00
     24.896     8.9272 192.383984    283.507    8.08965   69.91794 1.8928e+00    31.9428     0.0340     1.7601     0.0169  0.000e+00
     24.896     8.9303 192.383982    283.481    8.06435   69.70450 1.8963e+00    33.3131     0.0242     1.3256     0.0171  0.000e+00
     24.896     8.9334 192.444222    283.543    8.03247   69.43427 1.8876e+00    36.4604     0.0110     1.1189     0.0159  0.000e+00
     24.896     8.9364 192.444220    283.518    8.01110   69.25444 1.8966e+00    34.2270     0.0192     1.5781     0.0168  0.000e+00
     24.895     8.9394 192.383976    283.405    7.98107   68.99977 1.8841e+00    36.4604     0.0110     2.4979     0.0163  0.000e+00
     24.895     8.9424 192.474338    283.513    7.96006   68.82312 1.8963e+00    33.3131     0.0242     2.7868     0.0166  0.000e+00
     24.896     8.9455 192.534579    283.576    7.93389   68.60201 1.9145e+00    34.5849     0.0176     3.0082     0.0167  0.000e+00
     24.896     8.9485 192.474334    283.462    7.90553   68.36158 1.9068e+00    35.9029     0.0126     3.2639     0.0159  0.000e+00
     24.896     8.9515 192.594818    283.614    7.88265   68.16875 1.9082e+00    34.9779     0.0159     3.1520     0.0151  0.000e+00
     24.896     8.9544 192.534573    283.501    7.86342   68.00722 1.9121e+00    35.4137     0.0143     2.4557     0.0157  0.000e+00
     24.896     8.9574 192.534572    283.477    7.83798   67.79193 1.9184e+00    38.8422     0.0061     1.7904     0.0157  0.000e+00
     24.896     8.9602 192.534570    283.453    7.81764   67.62067 1.9195e+00    55.2620    -0.0005     1.3652     0.0161  0.000e+00
     24.896     8.9631 192.594811    283.517    7.79140   67.39833 1.9093e+00    33.8986     0.0209     1.2764     0.0156  0.000e+00
     24.896     8.9661 192.685174    283.625    7.76391   67.16542 1.9093e+00    41.9704     0.0028     1.3902     0.0157  0.000e+00
     24.897     8.9689 192.655051    283.558    7.73728   66.93953 1.9163e+00    34.2270     0.0192     1.4772     0.0155  0.000e+00
     24.897     8.9718 192.655049    283.534    7.71821   66.77911 1.9061e+00    32.3496     0.0307     1.5179     0.0144  0.000e+00
     24.898     8.9746 192.715290    283.598    7.69056   66.54447 1.9114e+00    37.1084     0.0094     1.6365     0.0159  0.000e+00
     24.897     8.9775 192.655045    283.486    7.66642   66.34008 1.8970e+00    41.9704     0.0028     1.5051     0.0147  0.000e+00
     24.898     8.9801 192.715287    283.552    7.64673   66.17400 1.8991e+00    37.1084     0.0094     1.1997     0.0153  0.000e+00
     24.899     8.9829 192.685164    283.485    7.62313   65.97409 1.8848e+00    37.8821     0.0077     0.9379     0.0153  0.000e+00
     24.899     8.9858 192.775527    283.594    7.60190   65.79490 1.8935e+00    36.4604     0.0110     0.7318     0.0150  0.000e+00
     24.899     8.9885 192.745404    283.527    7.58121   65.62006 1.9167e+00    55.2620    -0.0005     0.5988     0.0156  0.000e+00
     24.899     8.9911 192.775524    283.550    7.56032   65.44342 1.9255e+00    40.1079     0.0044     0.5385     0.0159  0.000e+00
     24.899     8.9938 192.865888    283.660    7.53285   65.20987 1.9337e+00    37.8821     0.0077     0.5010     0.0166  0.000e+00
     24.899     8.9965 192.775520    283.505    7.51690   65.07601 1.9280e+00    41.9704     0.0028     0.4647     0.0166  0.000e+00
     24.899     8.9991 192.775519    283.483    7.49629   64.90152 1.9473e+00    34.9779     0.0159     0.4253     0.0153  0.000e+00
     24.899     9.0017 192.745395    283.417    7.47797   64.74698 1.9465e+00    34.2270     0.0192     0.5041     0.0149  0.000e+00
     24.899     9.0043 192.835759    283.528    7.45835   64.58113 1.9534e+00    33.8986     0.0209     0.8228     0.0156  0.000e+00
     24.899     9.0068 192.805636    283.463    7.43826   64.41105 1.9573e+00    34.5849     0.0176     1.4780     0.0153  0.000e+00
     24.899     9.0092 192.775512    283.398    7.41850   64.24369 1.9555e+00    41.9704     0.0028     1.7018     0.0163  0.000e+00
     24.899     9.0118 192.805633    283.421    7.39888   64.07778 1.9548e+00    38.8422     0.0061     1.4073     0.0163  0.000e+00
     24.899     9.0143 192.835753    283.445    7.38647   63.97410 1.9595e+00    35.4137     0.0143     1.2989     0.0163  0.000e+00
     24.899     9.0167 192.865873    283.469    7.36172   63.76336 1.9595e+00    34.5849     0.0176     1.3350     0.0148  0.000e+00
     24.899     9.0192 192.895994    283.492    7.34072   63.58547 1.9678e+00    45.5660     0.0011     1.6313     0.0143  0.000e+00
     24.899     9.0215 192.895992    283.473    7.32826   63.48102 1.9703e+00    34.5849     0.0176     1.9100     0.0138  0.000e+00
     24.898     9.0239 192.895991    283.453    7.30756   63.30531 1.9714e+00    37.1084     0.0094     1.7678     0.0143  0.000e+00
     24.899     9.0264 192.865867    283.388    7.29373   63.18929 1.9595e+00    55.2620    -0.0087     1.7580     0.0146  0.000e+00
     24.898     9.0287 192.835744    283.325    7.27593   63.03851 1.9609e+00    34.5849     0.0176     1.4289     0.0161  0.000e+00
     24.899     9.0309 192.895986    283.395    7.26301   62.92987 1.9566e+00    34.9779     0.0159     1.6329     0.0167  0.000e+00
     24.898     9.0333 192.895985    283.375    7.24337   62.76331 1.9523e+00    45.5660     0.0011     1.7064     0.0172  0.000e+00
     24.898     9.0354 192.835740    283.269    7.22936   62.64514 1.9548e+00    36.4604     0.0110     2.9946     0.0166  0.000e+00
     24.897     9.0378 192.895982    283.338    7.21423   62.51749 1.9465e+00    38.8422     0.0061     4.1293     0.0169  0.000e+00
     24.897     9.0400 192.895981    283.319    7.19710   62.37237 1.9405e+00    40.1079     0.0044     4.8243     0.0172  0.000e+00
     24.897     9.0421 192.895979    283.301    7.18346   62.25739 1.9412e+00    45.5660     0.0011     4.9157     0.0159  0.000e+00
     24.897     9.0443 192.895978    283.283    7.17063   62.14941 1.9430e+00    55.2620    -0.0087     4.9152     0.0153  0.000e+00
     24.897     9.0465 192.895977    283.265    7.15695   62.03407 1.9408e+00    35.4137     0.0143     4.9148     0.0156  0.000e+00
     24.897     9.0486 192.956219    283.336    7.13922   61.88359 1.9458e+00    35.4137     0.0143     4.7611     0.0151  0.000e+00
     24.897     9.0505 192.865852    283.187    7.13036   61.80964 1.9451e+00    40.1079     0.0044     4.1295     0.0151  0.000e+00
     24.897     9.0528 192.895973    283.213    7.10944   61.63158 1.9483e+00    36.4604     0.0110     3.8273     0.0157  0.000e+00
     24.898     9.0547 192.895971    283.197    7.09501   61.50924 1.9423e+00    55.2620    -0.0038     3.6078     0.0154  0.000e+00
     24.898     9.0567 192.956214    283.269    7.07866   61.37054 1.9394e+00    37.1084     0.0094     3.6949     0.0171  0.000e+00
     24.899     9.0588 192.956213    283.251    7.07239   61.31924 1.9248e+00    45.5660     0.0011     3.4564     0.0165  0.000e+00
     24.899     9.0607 192.956212    283.235    7.05844   61.20110 1.9131e+00    38.8422     0.0061     3.5273     0.0157  0.000e+00
     24.900     9.0627 192.895966    283.130    7.04770   61.11091 1.9156e+00    37.8821     0.0077     3.2516     0.0153  0.000e+00
     24.902     9.0645 192.956209    283.204    7.03551   61.00783 1.9473e+00    35.9029     0.0126     2.9575     0.0151  0.000e+00
     24.909     9.0665 192.895964    283.099    7.02602   60.92839 2.0262e+00    41.9704     0.0028     2.4955     0.0150  0.000e+00
     24.927     9.0685 192.956207    283.170    7.01684   60.85180 2.1070e+00    35.9029     0.0126     1.9184     0.0157  0.000e+00
     24.941     9.0701 192.895963    283.068    7.00934   60.78911 2.1933e+00    29.8754     0.0571     1.5239     0.0144  0.000e+00
     24.942     9.0717 192.895962    283.055    6.99702   60.68455 2.2973e+00     8.3162    12.5048     1.2945     0.0156  0.000e+00
