* Sea-Bird SBE19plus Data File:
* FileName = C:\Users\Steve Constant\Desktop\CHRP2017\CTD\raw\CHRP2015.hex
* Software Version 1.59
* Temperature SN =  6337
* Conductivity SN =  6337
* System UpLoad Time = May 26 2017 12:22:52
* ds
* SBE 19plus V 2.5.2  SERIAL NO. 6337    26 May 2017 08:22:16
* vbatt = 12.1, vlith =  8.2, ioper =  61.5 ma, ipump =  44.7 ma,
* iext01 =   4.2 ma, iext2345 =  90.6 ma
* status = not logging
* number of scans to average = 1
* samples = 300534, free = 2560254, casts = 22
* mode = profile, minimum cond freq = 3154, pump delay = 40 sec
* autorun = no, ignore magnetic switch = no
* battery type = alkaline, battery cutoff =  7.5 volts
* pressure sensor = strain gauge, range = 160.0
* SBE 38 = no, WETLABS = no, OPTODE = no, SBE63 = no, Gas Tension Device = no
* Ext Volt 0 = yes, Ext Volt 1 = yes
* Ext Volt 2 = yes, Ext Volt 3 = yes
* Ext Volt 4 = yes, Ext Volt 5 = yes
* echo characters = yes
* output format = raw HEX

* S>
*
* SBE 19plus V 2.5.2  SERIAL NO. 6337    26 May 2017 08:22:33
* temperature:  13-Jan-17
*     TA0 = 1.295807e-03
*     TA1 = 2.588888e-04
*     TA2 = 9.706836e-08
*     TA3 = 1.382757e-07
*     TOFFSET = 0.000000e+00
* conductivity:  13-Jan-17
*     G = -1.015047e+00
*     H = 1.449340e-01
*     I = -4.359138e-04
*     J = 5.256769e-05
*     CPCOR = -9.570000e-08
*     CTCOR = 3.250000e-06
*     CSLOPE = 1.000000e+00
* pressure S/N = 2882551, range = 160 psia:  11-Jan-17
*     PA0 = -1.431544e-01
*     PA1 = 4.887645e-04
*     PA2 = -6.439018e-12
*     PTCA0 = 5.240819e+05
*     PTCA1 = -1.723854e+01
*     PTCA2 = 1.164354e-01
*     PTCB0 = 2.491288e+01
*     PTCB1 = -1.025000e-03
*     PTCB2 = 0.000000e+00
*     PTEMPA0 = -6.474687e+01
*     PTEMPA1 = 5.145625e+01
*     PTEMPA2 = -2.579592e-01
*     POFFSET = 0.000000e+00
* volt 0: offset = -4.766105e-02, slope = 1.249330e+00
* volt 1: offset = -4.904947e-02, slope = 1.248985e+00
* volt 2: offset = -4.772842e-02, slope = 1.248965e+00
* volt 3: offset = -4.803053e-02, slope = 1.249328e+00
* volt 4: offset = -4.743158e-02, slope = 1.248557e+00
* volt 5: offset = -4.724737e-02, slope = 1.251092e+00
*     EXTFREQSF = 9.999918e-01
* dh
* cast  15 22 May 2017 12:48:20 samples 7503 to 292009, avg = 1, stop = mag switch

* S>
# nquan = 12
# nvalues = 854                                   
# units = specified
# name 0 = depFM: Depth [fresh water, m]
# name 1 = tv290C: Temperature [ITS-90, deg C]
# name 2 = c0uS/cm: Conductivity [uS/cm]
# name 3 = specc: Specific Conductance [uS/cm]
# name 4 = sbeox0Mg/L: Oxygen, SBE 43 [mg/l]
# name 5 = sbeox0PS: Oxygen, SBE 43 [% saturation]
# name 6 = par: PAR/Irradiance, Biospherical/Licor
# name 7 = CStarAt0: Beam Attenuation, WET Labs C-Star [1/m]
# name 8 = CStarTr0: Beam Transmission, WET Labs C-Star [%]
# name 9 = chloroflTC0: Chlorophyll, Turner Cyclops [ug/l]
# name 10 = phycyflTC0: Phycocyanin, Turner Cyclops [RFU]
# name 11 = flag:  0.000e+00
# span 0 =     -0.207,     13.097                 
# span 1 =    13.9563,    24.4862                 
# span 2 =   6.265699, 234.711471                 
# span 3 =      6.375,    287.691                 
# span 4 =    7.98185,   10.11798                 
# span 5 =   79.58132,  102.78364                 
# span 6 = 1.0000e-12, 5.6543e+03                 
# span 7 =     0.1697,    13.4398                 
# span 8 =     3.4737,    95.8470                 
# span 9 =     0.2876,     2.3915                 
# span 10 =     0.0000,     0.4546                
# span 11 = 0.0000e+00, 0.0000e+00                
# interval = seconds: 0.25
# start_time = May 22 2017 12:48:20 [Instrument's time stamp, header]
# bad_flag = -9.990e-29
# <Sensors count="9" >
#   <sensor Channel="1" >
#     <!-- Count, Temperature -->
#     <TemperatureSensor SensorID="58" >
#       <SerialNumber>6337</SerialNumber>
#       <CalibrationDate>13-Jan-17</CalibrationDate>
#       <A0>1.29580686e-003</A0>
#       <A1>2.58888790e-004</A1>
#       <A2>9.70683569e-008</A2>
#       <A3>1.38275720e-007</A3>
#       <Slope>1.00000000</Slope>
#       <Offset>0.0000</Offset>
#     </TemperatureSensor>
#   </sensor>
#   <sensor Channel="2" >
#     <!-- Frequency 0, Conductivity -->
#     <ConductivitySensor SensorID="3" >
#       <SerialNumber>6337</SerialNumber>
#       <CalibrationDate>13-Jan-17</CalibrationDate>
#       <UseG_J>1</UseG_J>
#       <!-- Cell const and series R are applicable only for wide range sensors. -->
#       <SeriesR>0.0000</SeriesR>
#       <CellConst>2000.0000</CellConst>
#       <ConductivityType>0</ConductivityType>
#       <Coefficients equation="0" >
#         <A>0.00000000e+000</A>
#         <B>0.00000000e+000</B>
#         <C>0.00000000e+000</C>
#         <D>0.00000000e+000</D>
#         <M>0.0</M>
#         <CPcor>-9.57000000e-008</CPcor>
#       </Coefficients>
#       <Coefficients equation="1" >
#         <G>-1.01504657e+000</G>
#         <H>1.44933984e-001</H>
#         <I>-4.35913838e-004</I>
#         <J>5.25676850e-005</J>
#         <CPcor>-9.57000000e-008</CPcor>
#         <CTcor>3.2500e-006</CTcor>
#         <!-- WBOTC not applicable unless ConductivityType = 1. -->
#         <WBOTC>0.00000000e+000</WBOTC>
#       </Coefficients>
#       <Slope>1.00000000</Slope>
#       <Offset>0.00000</Offset>
#     </ConductivitySensor>
#   </sensor>
#   <sensor Channel="3" >
#     <!-- Count, Pressure, Strain Gauge -->
#     <PressureSensor SensorID="46" >
#       <SerialNumber>6337</SerialNumber>
#       <CalibrationDate>11-Jan-17</CalibrationDate>
#       <PA0>-1.43154376e-001</PA0>
#       <PA1>4.88764480e-004</PA1>
#       <PA2>-6.43901847e-012</PA2>
#       <PTEMPA0>-6.47468750e+001</PTEMPA0>
#       <PTEMPA1>5.14562526e+001</PTEMPA1>
#       <PTEMPA2>-2.57959185e-001</PTEMPA2>
#       <PTCA0>5.24081949e+005</PTCA0>
#       <PTCA1>-1.72385379e+001</PTCA1>
#       <PTCA2>1.16435406e-001</PTCA2>
#       <PTCB0>2.49128750e+001</PTCB0>
#       <PTCB1>-1.02500000e-003</PTCB1>
#       <PTCB2>0.00000000e+000</PTCB2>
#       <Offset>0.000000</Offset>
#     </PressureSensor>
#   </sensor>
#   <sensor Channel="4" >
#     <!-- A/D voltage 0, Oxygen, SBE 43 -->
#     <OxygenSensor SensorID="38" >
#       <SerialNumber>2361</SerialNumber>
#       <CalibrationDate>20-Jan-17</CalibrationDate>
#       <Use2007Equation>1</Use2007Equation>
#       <CalibrationCoefficients equation="0" >
#         <!-- Coefficients for Owens-Millard equation. -->
#         <Boc>0.0000</Boc>
#         <Soc>0.0000e+000</Soc>
#         <offset>0.0000</offset>
#         <Pcor>0.00e+000</Pcor>
#         <Tcor>0.0000</Tcor>
#         <Tau>0.0</Tau>
#       </CalibrationCoefficients>
#       <CalibrationCoefficients equation="1" >
#         <!-- Coefficients for Sea-Bird equation - SBE calibration in 2007 and later. -->
#         <Soc>3.9698e-001</Soc>
#         <offset>-0.4986</offset>
#         <A>-3.9823e-003</A>
#         <B> 2.4447e-004</B>
#         <C>-3.3613e-006</C>
#         <D0> 2.5826e+000</D0>
#         <D1> 1.92634e-004</D1>
#         <D2>-4.64803e-002</D2>
#         <E> 3.6000e-002</E>
#         <Tau20> 1.0800</Tau20>
#         <H1>-3.3000e-002</H1>
#         <H2> 5.0000e+003</H2>
#         <H3> 1.4500e+003</H3>
#       </CalibrationCoefficients>
#     </OxygenSensor>
#   </sensor>
#   <sensor Channel="5" >
#     <!-- A/D voltage 1, Free -->
#   </sensor>
#   <sensor Channel="6" >
#     <!-- A/D voltage 2, PAR/Irradiance, Biospherical/Licor -->
#     <PAR_BiosphericalLicorChelseaSensor SensorID="42" >
#       <SerialNumber>70234</SerialNumber>
#       <CalibrationDate>11/29/16</CalibrationDate>
#       <M>1.00000000</M>
#       <B>0.00000000</B>
#       <CalibrationConstant>10917030568.00000000</CalibrationConstant>
#       <Multiplier>1.00000000</Multiplier>
#       <Offset>-0.09353959</Offset>
#     </PAR_BiosphericalLicorChelseaSensor>
#   </sensor>
#   <sensor Channel="7" >
#     <!-- A/D voltage 3, Transmissometer, WET Labs C-Star -->
#     <WET_LabsCStar SensorID="71" >
#       <SerialNumber>CST-484PR</SerialNumber>
#       <CalibrationDate>12/23/16</CalibrationDate>
#       <M>21.5610</M>
#       <B>-1.2721</B>
#       <PathLength>0.250</PathLength>
#     </WET_LabsCStar>
#   </sensor>
#   <sensor Channel="8" >
#     <!-- A/D voltage 4, Fluorometer, Turner Cyclops -->
#     <Fluorometer SensorID="68" >
#       <SerialNumber></SerialNumber>
#       <CalibrationDate></CalibrationDate>
#       <ScaleFactor>1.00000000e+000</ScaleFactor>
#       <Offset>0.00000000e+000</Offset>
#       <!-- 1 = C, Chlorophyll -->
#       <!-- 2 = R, Rhodamine -->
#       <!-- 3 = F, Fluorescein -->
#       <!-- 4 = P, Phycocyanin -->
#       <!-- 5 = E, Phycoerythrin -->
#       <!-- 6 = U, CDOM -->
#       <!-- 7 = O, CrudeOil -->
#       <!-- 8 = B, OpticalBrightness -->
#       <!-- 9 = T, Turbidity -->
#       <!-- 10 = G, Refined Fuels -->
#       <MeasuredParameter>4</MeasuredParameter>
#     </Fluorometer>
#   </sensor>
#   <sensor Channel="9" >
#     <!-- A/D voltage 5, Fluorometer, Turner Cyclops, 2 -->
#     <Fluorometer SensorID="68" >
#       <SerialNumber></SerialNumber>
#       <CalibrationDate></CalibrationDate>
#       <ScaleFactor>1.00000000e+000</ScaleFactor>
#       <Offset>0.00000000e+000</Offset>
#       <!-- 1 = C, Chlorophyll -->
#       <!-- 2 = R, Rhodamine -->
#       <!-- 3 = F, Fluorescein -->
#       <!-- 4 = P, Phycocyanin -->
#       <!-- 5 = E, Phycoerythrin -->
#       <!-- 6 = U, CDOM -->
#       <!-- 7 = O, CrudeOil -->
#       <!-- 8 = B, OpticalBrightness -->
#       <!-- 9 = T, Turbidity -->
#       <!-- 10 = G, Refined Fuels -->
#       <MeasuredParameter>1</MeasuredParameter>
#     </Fluorometer>
#   </sensor>
# </Sensors>
# datcnv_date = May 26 2017 13:03:35, 7.21d [datcnv_vars = 11]
# datcnv_in = C:\Users\Steve Constant\Desktop\CHRP2017\CTD\raw\CHRP1.hex C:\Users\Steve Constant\Desktop\CHRP2017\CTD\raw\SBE19plusV2_63372017.xmlcon
# datcnv_skipover = 0
# datcnv_ox_hysteresis_correction = yes
# datcnv_ox_tau_correction = yes
# file_type = ascii
*END*
     -0.206    24.4862   6.385081      6.451    8.21344   98.46477 5.6543e+03     0.2784    93.2759     2.2019     0.2764  0.000e+00
     -0.206    24.4748   6.355234      6.422    8.21406   98.45137 5.6266e+03     0.1697    95.8470     2.2313     0.2847  0.000e+00
     -0.207    24.4623   6.444777      6.514    8.21625   98.45486 5.6325e+03     0.2072    94.9521     2.2510     0.2902  0.000e+00
     -0.207    24.4467   6.414930      6.486    8.21433   98.40329 5.6494e+03     0.2782    93.2824     2.2645     0.2879  0.000e+00
     -0.207    24.4352   6.355234      6.427    8.22064   98.45787 5.6434e+03     0.2966    92.8531     2.2885     0.2759  0.000e+00
     -0.207    24.4295   6.385082      6.458    8.22276   98.47277 5.6246e+03     0.2729    93.4058     2.3018     0.2708  0.000e+00
     -0.206    24.4239   6.355235      6.429    8.22370   98.47383 5.5383e+03     0.2515    93.9059     2.3278     0.2784  0.000e+00
     -0.206    24.4155   6.355235      6.430    8.22459   98.46900 5.6187e+03     0.2523    93.8878     2.3492     0.2898  0.000e+00
     -0.206    24.3983   6.325388      6.402    8.22619   98.45682 5.6474e+03     0.2613    93.6772     2.3529     0.2960  0.000e+00
     -0.206    24.3702   6.295541      6.375    8.23005   98.45163 5.6276e+03     0.2664    93.5571     2.3455     0.3046  0.000e+00
     -0.207    24.3315   6.295541      6.380    8.23453   98.43426 5.6484e+03     0.2651    93.5868     2.3386     0.3008  0.000e+00
     -0.207    24.2885   6.325390      6.416    8.24243   98.44989 5.6405e+03     0.2612    93.6789     2.3304     0.2963  0.000e+00
     -0.206    24.2488   6.355238      6.451    8.24987   98.46597 5.6029e+03     0.2609    93.6855     2.3259     0.2812  0.000e+00
     -0.206    24.2130   6.325391      6.426    8.25944   98.51438 5.6088e+03     0.2616    93.6690     2.3168     0.2802  0.000e+00
     -0.206    24.1829   6.355240      6.460    8.26919   98.57541 5.2568e+03     0.2624    93.6509     2.3105     0.2837  0.000e+00
     -0.206    24.1559   6.355240      6.464    8.27752   98.62496 4.1658e+03     0.2627    93.6443     2.3191     0.2803  0.000e+00
     -0.206    24.1302   6.325393      6.437    8.28763   98.69817 4.1142e+03     0.2620    93.6591     2.3369     0.2770  0.000e+00
     -0.206    24.1135   6.355241      6.469    8.29506   98.75597 5.3452e+03     0.2618    93.6657     2.3596     0.2797  0.000e+00
     -0.206    24.1084   6.295546      6.409    8.29699   98.76952 5.1201e+03     0.2618    93.6641     2.3592     0.2731  0.000e+00
     -0.206    24.1106   6.325393      6.439    8.30355   98.85153 3.8323e+03     0.2621    93.6575     2.3652     0.2672  0.000e+00
     -0.206    24.1182   6.295546      6.408    8.30243   98.85239 5.5354e+03     0.2626    93.6460     2.3609     0.2754  0.000e+00
     -0.207    24.1132   6.325393      6.439    8.29975   98.81119 5.5882e+03     0.2619    93.6624     2.3400     0.2741  0.000e+00
     -0.206    24.0897   6.295546      6.412    8.30487   98.82869 5.5921e+03     0.2627    93.6443     2.3503     0.2755  0.000e+00
     -0.206    24.0659   6.265699      6.384    8.30546   98.79194 5.5520e+03     0.2626    93.6460     2.3593     0.2813  0.000e+00
     -0.206    24.0470   6.265700      6.387    8.30833   98.79114 5.5627e+03     0.2622    93.6558     2.3672     0.2854  0.000e+00
     -0.206    24.0363   6.265700      6.388    8.30699   98.75557 5.1219e+03     0.2618    93.6641     2.3610     0.3008  0.000e+00
     -0.205    24.0279   6.265700      6.389    8.30979   98.77326 4.4425e+03     0.2618    93.6641     2.3529     0.3082  0.000e+00
     -0.206    24.0122   6.265700      6.391    8.31119   98.76080 3.9450e+03     0.2620    93.6608     2.3378     0.3019  0.000e+00
     -0.206    23.9903   6.295548      6.425    8.31286   98.74022 3.7248e+03     0.2623    93.6526     2.3371     0.2895  0.000e+00
     -0.205    23.9793   6.265701      6.396    8.31674   98.76613 3.7975e+03     0.2620    93.6608     2.3437     0.2828  0.000e+00
     -0.206    23.9792   6.295549      6.426    8.31440   98.73819 3.8607e+03     0.2620    93.6608     2.3504     0.2905  0.000e+00
     -0.205    23.9881   6.295548      6.425    8.31237   98.73041 4.3836e+03     0.2620    93.6591     2.3394     0.2983  0.000e+00
     -0.205    24.0024   6.325396      6.453    8.31384   98.77428 4.6583e+03     0.2621    93.6575     2.3426     0.2994  0.000e+00
     -0.205    24.0160   6.265700      6.391    8.31170   98.77391 4.8589e+03     0.2621    93.6575     2.3447     0.2934  0.000e+00
     -0.204    24.0269   6.265700      6.389    8.31083   98.78383 5.3368e+03     0.2620    93.6608     2.3504     0.2926  0.000e+00
     -0.204    24.0314   6.325395      6.450    8.31144   98.79937 5.4534e+03     0.2618    93.6657     2.3564     0.2893  0.000e+00
     -0.205    24.0279   6.265700      6.389    8.31165   98.79535 5.5179e+03     0.2618    93.6657     2.3512     0.2911  0.000e+00
     -0.204    24.0339   6.295547      6.419    8.31177   98.80787 5.5413e+03     0.2615    93.6707     2.3472     0.2958  0.000e+00
     -0.205    24.0454   6.265700      6.387    8.31012   98.80938 5.5735e+03     0.2615    93.6723     2.3652     0.2982  0.000e+00
     -0.204    24.0578   6.355242      6.477    8.30546   98.77692 5.5500e+03     0.2621    93.6575     2.3753     0.3010  0.000e+00
     -0.204    24.0693   6.325394      6.445    8.30805   98.82892 5.5364e+03     0.2622    93.6558     2.3743     0.3033  0.000e+00
     -0.205    24.0793   6.355242      6.474    8.30868   98.85479 5.5705e+03     0.2615    93.6707     2.3753     0.3071  0.000e+00
     -0.204    24.0883   6.414937      6.533    8.30583   98.83765 5.5005e+03     0.2613    93.6756     2.3725     0.3011  0.000e+00
     -0.204    24.0957   6.444785      6.563    8.30316   98.81964 4.8932e+03     0.2618    93.6641     2.3502     0.3022  0.000e+00
     -0.204    24.1008   6.414937      6.532    8.30286   98.82521 4.5077e+03     0.2616    93.6690     2.3519     0.2952  0.000e+00
     -0.205    24.1031   6.414937      6.531    8.30280   98.82882 3.8242e+03     0.2621    93.6575     2.3658     0.2966  0.000e+00
     -0.205    24.1046   6.474632      6.592    8.30030   98.80180 3.7570e+03     0.2622    93.6558     2.3670     0.2976  0.000e+00
     -0.204    24.1032   6.414937      6.531    8.30212   98.82092 3.7629e+03     0.2621    93.6575     2.3806     0.2975  0.000e+00
     -0.204    24.0848   6.444785      6.564    8.30381   98.80711 4.0582e+03     0.2618    93.6657     2.3874     0.2972  0.000e+00
     -0.205    24.0704   6.414937      6.536    8.30600   98.80669 3.8777e+03     0.2662    93.5621     2.3848     0.2957  0.000e+00
     -0.204    24.0626   6.414938      6.537    8.30518   98.78243 3.7091e+03     0.2847    93.1294     2.3800     0.3003  0.000e+00
     -0.204    24.0476   6.474633      6.600    8.30904   98.80076 3.7702e+03     0.2902    93.0028     2.3655     0.3000  0.000e+00
     -0.204    24.0394   6.414938      6.540    8.30980   98.79453 3.8648e+03     0.2760    93.3334     2.3727     0.2945  0.000e+00
     -0.201    24.0443   6.414938      6.539    8.31070   98.81425 3.8343e+03     0.2650    93.5900     2.3851     0.0000  0.000e+00
     -0.203    24.0416   6.474634      6.600    8.30547   98.74721 3.6107e+03     0.2629    93.6394     2.3758     0.0000  0.000e+00
     -0.204    24.0306   6.414938      6.541    8.31165   98.80024 3.8048e+03     0.2629    93.6394     2.3847     0.0000  0.000e+00
     -0.205    24.0066   6.414939      6.544    8.31451   98.78996 4.6870e+03     0.2629    93.6378     2.3862     0.0000  0.000e+00
     -0.204    24.0008   6.444787      6.575    8.31595   98.79641 5.0406e+03     0.2627    93.6443     2.3813     0.0000  0.000e+00
     -0.204    24.0074   6.414939      6.544    8.31385   98.78363 5.4314e+03     0.2618    93.6657     2.3813     0.0000  0.000e+00
     -0.204    24.0167   6.474634      6.604    8.31245   98.78411 5.4247e+03     0.2656    93.5752     2.3819     0.0000  0.000e+00
     -0.204    24.0225   6.414938      6.542    8.31231   98.79328 5.1761e+03     0.2631    93.6345     2.3915     0.0000  0.000e+00
     -0.201    24.0238   6.295548      6.420    8.31445   98.82105 4.4841e+03     0.2624    93.6509     2.3911     0.1039  0.000e+00
     -0.182    24.0292  22.987204     23.440    8.31297   98.81690 3.7241e+03     0.2621    93.6575     2.3416     0.3684  0.000e+00
     -0.046    23.0394 209.911865    218.454    8.44675   98.60357 4.0511e+03     1.0634    76.6548     1.8157     0.4546  0.000e+00
      0.115    20.0951 223.514009    247.799    8.88865   98.01318 5.2255e+03     8.0129    13.4901     1.2947     0.3442  0.000e+00
      0.240    17.9102 227.859901    265.481    9.25552   97.65956 5.5413e+03    11.5764     5.5349     0.9377     0.2424  0.000e+00
      0.314    16.6303 227.860850    273.646    9.50509   97.66410 4.7802e+03    13.4398     3.4737     0.7156     0.1697  0.000e+00
      0.330    15.9903 227.861325    277.919    9.67200   98.04695 5.0247e+03     8.9501    10.6722     0.5734     0.1243  0.000e+00
      0.313    15.6835 227.288289    279.311    9.79604   98.65875 4.9589e+03     7.8602    14.0149     0.4826     0.0810  0.000e+00
      0.293    15.5222 227.559951    280.759    9.88814   99.24396 4.4699e+03     7.4479    15.5365     0.4253     0.0543  0.000e+00
      0.284    15.4371 228.072940    281.984    9.94157   99.59908 4.1454e+03     7.3695    15.8441     0.3848     0.0357  0.000e+00
      0.309    15.3965 228.103143    282.305    9.96678   99.76485 3.9188e+03     7.3282    16.0086     0.3540     0.0378  0.000e+00
      0.360    15.3994 230.577436    285.346    9.97208   99.82506 3.7458e+03     7.3224    16.0316     0.3370     0.0376  0.000e+00
      0.408    15.4258 232.569136    287.623    9.97379   99.89942 3.3176e+03     7.3056    16.0991     0.3313     0.0428  0.000e+00
      0.464    15.4583 232.810546    287.691    9.97954  100.02648 2.4520e+03     7.3212    16.0366     0.3368     0.0444  0.000e+00
      0.530    15.5941 233.293320    287.323    9.97421  100.26379 1.9109e+03     7.3122    16.0728     0.3315     0.0429  0.000e+00
      0.571    15.7566 231.995497    284.584    9.98477  100.71787 2.0645e+03     7.3339    15.9856     0.3265     0.0413  0.000e+00
      0.578    15.9112 234.138138    286.127   10.01444  101.35041 2.2289e+03     7.3069    16.0942     0.3190     0.0417  0.000e+00
      0.575    16.0663 234.711471    285.744   10.04270  101.97140 2.2489e+03     7.3077    16.0909     0.3224     0.0394  0.000e+00
      0.575    16.1569 232.840199    282.842   10.07587  102.50375 2.4797e+03     7.3352    15.9806     0.3235     0.0397  0.000e+00
      0.589    16.0894 228.645746    278.204   10.11798  102.78364 2.5112e+03     7.3056    16.0991     0.3259     0.0376  0.000e+00
      0.630    15.8770 226.865759    277.472   10.06503  101.78567 2.0747e+03     7.3471    15.9329     0.3275     0.0385  0.000e+00
      0.686    15.6850 226.564197    278.411    9.48855   95.56462 2.0257e+03     7.3348    15.9823     0.3275     0.0404  0.000e+00
      0.732    15.5485 227.016857    279.907    9.14486   91.83534 1.7301e+03     7.3269    16.0135     0.3242     0.0388  0.000e+00
      0.746    15.4783 228.766897    282.554    9.02307   90.47700 1.6508e+03     7.3286    16.0070     0.3204     0.0392  0.000e+00
      0.720    15.4753 229.521250    283.506    9.01699   90.41063 2.2787e+03     7.3372    15.9724     0.3236     0.0394  0.000e+00
      0.659    15.4654 228.404826    282.196    9.10902   91.31369 2.2281e+03     7.3364    15.9757     0.3313     0.0429  0.000e+00
      0.580    15.4208 226.956606    280.716    9.20888   92.22621 2.4836e+03     7.3179    16.0497     0.3382     0.0438  0.000e+00
      0.507    15.3710 225.991197    279.867    9.29096   92.94873 2.5245e+03     7.3360    15.9774     0.3454     0.0431  0.000e+00
      0.467    15.3626 225.870525    279.776    9.28810   92.90319 5.2135e+03     7.3397    15.9626     0.3433     0.0423  0.000e+00
      0.473    15.3663 226.111878    280.050    9.30464   93.07610 2.4233e+03     7.3418    15.9543     0.3397     0.0401  0.000e+00
      0.521    15.3580 226.534264    280.630    9.28311   92.84449 2.8007e+03     7.3389    15.9658     0.3507     0.0454  0.000e+00
      0.587    15.3524 228.585947    283.211    9.24616   92.46446 2.1523e+03     7.3566    15.8951     0.3728     0.0469  0.000e+00
      0.653    15.3751 230.728341    285.705    9.17447   91.79297 2.0794e+03     7.3245    16.0234     0.3735     0.0498  0.000e+00
      0.704    15.3991 231.331860    286.282    9.10206   91.11544 1.9400e+03     7.3517    15.9148     0.3796     0.0480  0.000e+00
      0.722    15.4101 231.784515    286.764    9.04711   90.58677 1.7465e+03     7.3422    15.9527     0.3709     0.0464  0.000e+00
      0.703    15.4954 232.176766    286.644    8.97292   90.00818 1.9685e+03     7.3409    15.9576     0.3618     0.0434  0.000e+00
      0.654    15.5854 231.361896    285.004    8.89326   89.38066 2.0740e+03     7.3442    15.9445     0.3640     0.0434  0.000e+00
      0.595    15.6381 229.219382    281.999    8.78539   88.39513 2.2740e+03     7.3633    15.8688     0.3652     0.0427  0.000e+00
      0.544    15.6344 226.926277    279.203    8.69588   87.48688 2.7255e+03     7.3757    15.8194     0.3624     0.0420  0.000e+00
      0.530    15.5667 225.749699    278.220    8.59275   86.32414 2.6983e+03     7.3504    15.9198     0.3613     0.0417  0.000e+00
      0.557    15.5035 225.629070    278.505    8.53756   85.65394 2.6908e+03     7.3471    15.9329     0.3668     0.0426  0.000e+00
      0.611    15.4562 226.323003    279.688    8.51497   85.34111 2.1694e+03     7.3446    15.9428     0.3767     0.0414  0.000e+00
      0.659    15.4351 228.223812    282.184    8.58171   85.97175 1.9664e+03     7.3695    15.8441     0.3688     0.0443  0.000e+00
      0.681    15.4421 230.517058    284.970    8.67402   86.91025 2.2214e+03     7.3695    15.8441     0.3655     0.0448  0.000e+00
      0.675    15.4403 231.392183    286.065    8.78652   88.03438 2.1316e+03     7.3641    15.8655     0.3540     0.0442  0.000e+00
      0.642    15.5470 231.512811    285.461    8.83863   88.75873 2.5157e+03     7.3554    15.9000     0.3546     0.0422  0.000e+00
      0.592    15.7291 230.094382    282.443    8.86046   89.32382 2.6189e+03     7.3521    15.9132     0.3526     0.0416  0.000e+00
      0.556    15.8157 228.495083    279.885    8.88797   89.76582 2.3134e+03     7.3492    15.9247     0.3499     0.0421  0.000e+00
      0.546    15.7864 226.865824    278.089    8.92696   90.10300 2.4169e+03     7.3409    15.9576     0.3588     0.0429  0.000e+00
      0.564    15.6710 225.960808    277.765    8.98759   90.49198 2.2840e+03     7.3413    15.9560     0.3735     0.0463  0.000e+00
      0.598    15.5579 226.051400    278.651    9.00655   90.46442 2.1663e+03     7.3662    15.8573     0.3823     0.0448  0.000e+00
      0.635    15.4900 227.016898    280.311    9.00657   90.33364 2.0985e+03     7.3438    15.9461     0.3775     0.0408  0.000e+00
      0.660    15.4656 229.098816    283.053    9.01642   90.38590 1.9862e+03     7.3508    15.9181     0.3632     0.0378  0.000e+00
      0.665    15.4619 230.486867    284.794    9.01892   90.40420 1.9022e+03     7.3649    15.8622     0.3565     0.0356  0.000e+00
      0.649    15.4426 230.456705    284.892    9.03758   90.55394 2.3962e+03     7.3641    15.8655     0.3647     0.0380  0.000e+00
      0.618    15.4759 229.913520    283.987    9.03087   90.55107 2.3078e+03     7.3778    15.8112     0.3808     0.0406  0.000e+00
      0.581    15.5248 228.284089    281.634    8.99806   90.31591 2.3269e+03     7.3401    15.9609     0.3836     0.0439  0.000e+00
      0.557    15.5113 226.443641    279.456    8.96963   90.00395 2.4131e+03     7.3525    15.9116     0.3839     0.0444  0.000e+00
      0.563    15.4645 225.387749    278.475    8.96035   89.82055 2.4897e+03     7.3430    15.9494     0.4047     0.0423  0.000e+00
      0.604    15.4205 225.146435    278.479    8.94650   89.59736 1.9841e+03     7.3517    15.9148     0.4075     0.0437  0.000e+00
      0.656    15.3876 225.749833    279.453    8.89645   89.03346 2.0062e+03     7.3500    15.9214     0.4342     0.0426  0.000e+00
      0.689    15.3753 229.008362    283.574    8.84129   88.45909 2.1553e+03     7.3496    15.9231     0.4746     0.0449  0.000e+00
      0.695    15.3696 230.456761    285.408    8.77871   87.82269 1.9036e+03     7.3446    15.9428     0.4668     0.0426  0.000e+00
      0.668    15.4457 230.426528    284.833    8.69784   87.15564 2.0020e+03     7.3587    15.8869     0.4446     0.0428  0.000e+00
      0.613    15.6996 230.154755    282.722    8.59398   86.58291 2.5607e+03     7.3385    15.9675     0.4218     0.0422  0.000e+00
      0.553    15.8998 228.857100    279.752    8.53181   86.32298 2.7491e+03     7.3504    15.9198     0.3925     0.0397  0.000e+00
      0.511    15.9775 228.645828    278.963    8.54739   86.62324 2.5214e+03     7.3558    15.8984     0.4029     0.0400  0.000e+00
      0.493    15.9263 227.620000    278.059    8.63039   87.36905 2.5747e+03     7.3554    15.9000     0.4182     0.0443  0.000e+00
      0.513    15.7897 226.292586    277.363    8.74237   88.24595 2.5321e+03     7.3795    15.8046     0.4139     0.0450  0.000e+00
      0.563    15.6698 226.443525    278.367    8.81826   88.78500 2.3041e+03     7.3628    15.8704     0.4125     0.0457  0.000e+00
      0.631    15.5916 226.926311    279.498    8.90748   89.53399 2.3175e+03     7.3716    15.8359     0.4018     0.0446  0.000e+00
      0.699    15.5433 228.797021    282.138    9.02178   90.58997 2.1211e+03     7.3471    15.9329     0.4003     0.0404  0.000e+00
      0.745    15.5198 229.913490    283.679    9.15077   91.83940 1.7545e+03     7.3633    15.8688     0.4051     0.0417  0.000e+00
      0.753    15.5213 230.094541    283.892    9.24403   92.77832 1.6824e+03     7.3641    15.8655     0.4054     0.0416  0.000e+00
      0.724    15.6878 230.094416    282.730    9.25295   93.19855 1.7273e+03     7.3616    15.8754     0.3800     0.0426  0.000e+00
      0.681    15.8709 229.762351    281.057    9.22188   93.24794 2.0190e+03     7.3455    15.9395     0.3635     0.0410  0.000e+00
      0.628    15.9783 228.917391    279.290    9.18398   93.07637 2.3147e+03     7.3566    15.8951     0.3639     0.0407  0.000e+00
      0.572    16.0225 228.796662    278.841    9.15656   92.88545 2.4399e+03     8.2257    12.7910     0.3739     0.0375  0.000e+00
      0.530    15.9699 228.494968    278.831    9.12464   92.45840 2.5383e+03     7.4926    15.3638     0.3693     0.0397  0.000e+00
      0.510    15.8392 228.283854    279.465    9.09155   91.86776 2.5495e+03     7.3745    15.8244     0.4114     0.0410  0.000e+00
      0.502    15.7327 228.706356    280.715    9.03271   91.06672 2.5661e+03     7.3471    15.9329     0.4234     0.0401  0.000e+00
      0.504    15.6799 229.038305    281.487    8.96270   90.25942 2.5897e+03     7.3471    15.9329     0.4442     0.0433  0.000e+00
      0.520    15.6491 228.585725    281.144    8.88197   89.38758 2.3544e+03     7.3446    15.9428     0.4366     0.0426  0.000e+00
      0.560    15.5915 226.986651    279.573    8.79369   88.38993 2.4228e+03     7.3599    15.8819     0.4243     0.0416  0.000e+00
      0.619    15.5154 225.870416    278.721    8.69374   87.24306 2.2676e+03     7.3500    15.9214     0.4037     0.0417  0.000e+00
      0.684    15.4484 225.508438    278.735    8.58671   86.04543 2.2253e+03     7.3146    16.0629     0.3775     0.0436  0.000e+00
      0.737    15.4048 225.719653    279.297    8.48759   84.97304 1.8770e+03     7.3488    15.9264     0.3703     0.0443  0.000e+00
      0.764    15.3895 227.982468    282.204    8.39669   84.03612 1.6110e+03     7.3537    15.9066     0.3892     0.0440  0.000e+00
      0.759    15.3951 229.430787    283.958    8.31827   83.26159 1.6943e+03     7.3438    15.9461     0.3917     0.0417  0.000e+00
      0.720    15.3945 229.823058    284.447    8.26908   82.76829 1.8356e+03     7.3562    15.8968     0.3819     0.0405  0.000e+00
      0.651    15.5662 229.430657    282.760    8.21913   82.57088 2.1066e+03     7.3670    15.8540     0.3697     0.0402  0.000e+00
      0.576    15.7920 229.400312    281.157    8.18988   82.67395 2.4854e+03     7.3484    15.9280     0.3586     0.0376  0.000e+00
      0.525    15.9500 229.068278    279.666    8.17915   82.84314 2.6818e+03     7.3566    15.8951     0.3513     0.0413  0.000e+00
      0.516    16.0570 228.404384    278.129    8.19456   83.18741 2.5276e+03     7.3496    15.9231     0.3488     0.0466  0.000e+00
      0.531    16.1157 228.706072    278.099    8.23094   83.66079 2.4736e+03     7.3331    15.9889     0.3474     0.0476  0.000e+00
      0.548    16.0458 228.223357    277.985    8.30128   84.25080 2.1595e+03     7.3278    16.0103     0.3482     0.0436  0.000e+00
      0.565    15.9031 227.921739    278.586    8.39403   84.93467 2.1402e+03     7.3196    16.0432     0.3364     0.0431  0.000e+00
      0.577    15.7868 228.012342    279.492    8.46303   85.42139 2.4589e+03     7.3343    15.9839     0.3335     0.0440  0.000e+00
      0.584    15.7095 227.982227    279.985    8.50884   85.74270 2.2324e+03     7.3368    15.9741     0.3370     0.0476  0.000e+00
      0.600    15.6395 227.590043    279.985    8.51905   85.71734 2.5585e+03     7.3517    15.9148     0.3532     0.0469  0.000e+00
      0.630    15.5602 226.805651    279.566    8.50470   85.42805 2.3228e+03     7.3311    15.9971     0.3614     0.0487  0.000e+00
      0.665    15.4986 226.503993    279.619    8.45825   84.84957 2.0457e+03     7.3085    16.0876     0.3590     0.0421  0.000e+00
      0.700    15.4560 226.443685    279.839    8.42287   84.41768 2.1451e+03     7.3579    15.8902     0.3503     0.0405  0.000e+00
      0.730    15.4203 226.594563    280.273    8.38142   83.93812 1.9363e+03     7.3488    15.9264     0.3627     0.0418  0.000e+00
      0.746    15.3919 227.409199    281.477    8.34572   83.53014 1.8936e+03     7.3513    15.9165     0.3732     0.0423  0.000e+00
      0.736    15.3961 229.068695    283.502    8.35416   83.62259 1.8336e+03     7.3558    15.8984     0.3779     0.0455  0.000e+00
      0.691    15.4240 229.883385    284.314    8.33856   83.51653 1.7825e+03     7.3554    15.9000     0.3897     0.0481  0.000e+00
      0.621    15.5677 229.792751    283.195    8.30612   83.44758 2.0904e+03     7.3583    15.8885     0.3767     0.0462  0.000e+00
      0.541    15.8270 229.822731    281.433    8.26127   83.45673 2.6813e+03     7.4807    15.4098     0.3689     0.0433  0.000e+00
      0.469    16.0104 229.430322    279.696    8.24529   83.62013 4.6006e+03     7.8828    13.9359     0.3708     0.0443  0.000e+00
      0.433    16.1188 228.645721    278.005    8.25644   83.92540 5.2099e+03     7.4581    15.4970     0.3702     0.0437  0.000e+00
      0.437    16.1373 228.585361    277.806    8.28379   84.23633 5.2632e+03     7.3736    15.8277     0.3769     0.0413  0.000e+00
      0.479    15.9989 226.744983    276.500    8.35367   84.69786 2.4148e+03     7.3356    15.9790     0.3803     0.0380  0.000e+00
      0.543    15.8305 225.146134    275.683    8.42574   85.12323 2.7865e+03     7.3786    15.8079     0.3733     0.0393  0.000e+00
      0.620    15.6526 224.452409    276.036    8.52156   85.76548 2.3375e+03     7.3418    15.9543     0.3798     0.0423  0.000e+00
      0.703    15.5094 224.181012    276.677    8.66554   86.94837 2.0432e+03     7.3467    15.9346     0.3803     0.0443  0.000e+00
      0.770    15.4113 224.271585    277.461    8.86311   88.74421 1.6592e+03     7.3413    15.9560     0.3857     0.0462  0.000e+00
      0.816    15.3471 225.086157    278.912    9.09476   90.93885 1.4608e+03     7.3438    15.9461     0.3883     0.0475  0.000e+00
      0.836    15.3217 227.348910    281.893    9.31751   93.11615 1.5969e+03     7.3438    15.9461     0.3915     0.0482  0.000e+00
      0.813    15.3152 228.223904    283.024    9.52513   95.17815 1.6671e+03     7.3703    15.8408     0.3978     0.0480  0.000e+00
      0.734    15.3984 227.801427    281.917    9.65387   96.63668 2.1549e+03     7.3616    15.8754     0.4031     0.0488  0.000e+00
      0.620    15.6139 227.680577    280.273    9.68823   97.42839 2.4284e+03     7.3641    15.8655     0.3977     0.0484  0.000e+00
      0.497    15.7731 227.861489    279.400    9.68020   97.67836 3.0504e+03     7.3766    15.8161     0.3783     0.0482  0.000e+00
      0.399    15.8737 227.227808    277.937    9.61583   97.23643 5.2549e+03     7.3836    15.7882     0.3674     0.0454  0.000e+00
      0.354    15.9383 227.227759    277.499    9.49885   96.18516 5.2985e+03     7.3874    15.7734     0.3913     0.0360  0.000e+00
      0.366    15.9159 225.990794    276.139    9.35908   94.72443 5.1934e+03     7.3849    15.7832     0.3930     0.0378  0.000e+00
      0.415    15.7492 224.331665    275.234    9.21767   92.96268 3.6767e+03     7.3757    15.8194     0.3857     0.0386  0.000e+00
      0.488    15.5768 223.758627    275.697    9.10371   91.47632 2.6462e+03     7.3945    15.7454     0.3821     0.0410  0.000e+00
      0.591    15.4425 223.306239    276.053    9.01516   90.32680 2.3540e+03     7.3849    15.7832     0.3879     0.0413  0.000e+00
      0.703    15.3431 223.155486    276.547    8.99379   89.92109 1.6421e+03     7.3907    15.7602     0.4030     0.0407  0.000e+00
      0.788    15.2768 223.517523    277.452    9.07537   90.60775 1.5008e+03     7.3736    15.8277     0.4073     0.0408  0.000e+00
      0.831    15.2385 225.387920    280.040    9.25029   92.27886 1.6042e+03     7.3579    15.8902     0.4070     0.0398  0.000e+00
      0.828    15.2217 225.961144    280.869    9.48252   94.56180 1.5320e+03     7.3525    15.9116     0.4013     0.0405  0.000e+00
      0.777    15.2653 225.568912    280.078    9.69397   96.76076 1.9123e+03     7.3641    15.8655     0.4060     0.0418  0.000e+00
      0.693    15.4173 225.297281    278.689    9.83287   98.46725 2.0816e+03     7.4070    15.6961     0.4106     0.0433  0.000e+00
      0.596    15.5367 225.689385    278.351    9.90110   99.40430 2.1553e+03     7.3770    15.8145     0.3999     0.0475  0.000e+00
      0.516    15.5919 225.749681    278.047    9.92097   99.72112 2.6794e+03     7.4121    15.6763     0.4126     0.0481  0.000e+00
      0.472    15.6213 225.508307    277.548    9.86135   99.18410 3.6273e+03     7.3949    15.7438     0.4211     0.0512  0.000e+00
      0.470    15.6403 225.508293    277.418    9.72933   97.89599 3.9257e+03     7.8710    13.9770     0.4197     0.0488  0.000e+00
      0.502    15.6079 224.754113    276.711    9.54895   96.01429 2.7284e+03     7.6463    14.7847     0.4075     0.0516  0.000e+00
      0.528    15.5180 224.331836    276.804    9.36382   93.97223 2.0868e+03     7.4226    15.6352     0.4139     0.0488  0.000e+00
      0.549    15.4309 224.452569    277.550    9.19392   92.09543 2.4567e+03     7.3774    15.8129     0.3989     0.0465  0.000e+00
      0.565    15.3629 225.236981    278.989    9.07543   90.77646 2.2109e+03     7.3924    15.7536     0.3868     0.0459  0.000e+00
      0.562    15.3173 225.930898    280.165    9.01127   90.04682 1.8141e+03     7.3716    15.8359     0.3863     0.0421  0.000e+00
      0.555    15.2830 226.021432    280.517    8.98982   89.76639 2.3656e+03     7.3662    15.8573     0.3883     0.0423  0.000e+00
      0.568    15.2630 225.267223    279.719    8.98042   89.63388 2.9045e+03     7.3749    15.8227     0.4106     0.0436  0.000e+00
      0.609    15.2481 224.241534    278.549    8.96442   89.44516 2.3752e+03     7.3599    15.8819     0.4106     0.0426  0.000e+00
      0.683    15.2318 223.457222    277.687    8.97451   89.51428 2.1572e+03     7.3945    15.7454     0.4048     0.0433  0.000e+00
      0.770    15.2137 223.095251    277.362    8.97077   89.44216 1.7453e+03     7.3637    15.8671     0.4105     0.0436  0.000e+00
      0.820    15.2061 223.879569    278.390    8.96824   89.40259 1.5472e+03     7.3766    15.8161     0.4154     0.0442  0.000e+00
      0.821    15.2071 225.689631    280.634    8.94794   89.20257 1.4804e+03     7.3724    15.8326     0.4318     0.0423  0.000e+00
      0.767    15.2248 225.538773    280.322    8.92457   89.00344 1.7601e+03     7.3824    15.7931     0.4267     0.0443  0.000e+00
      0.659    15.3766 225.327478    279.007    8.87631   88.81076 2.1759e+03     7.3828    15.7915     0.4260     0.0465  0.000e+00
      0.521    15.5413 225.508367    278.096    8.85197   88.87999 2.6523e+03     7.4285    15.6122     0.4306     0.0479  0.000e+00
      0.394    15.6279 225.327289    277.280    8.86138   89.13912 5.2623e+03     7.3978    15.7323     0.4260     0.0481  0.000e+00
      0.312    15.6681 225.236752    276.895    8.87307   89.33321 5.2466e+03     7.4230    15.6336     0.4247     0.0439  0.000e+00
      0.303    15.6602 224.633400    276.207    8.88969   89.48518 5.2347e+03     7.4272    15.6171     0.4231     0.0366  0.000e+00
      0.356    15.5628 223.155320    275.049    8.91257   89.52880 5.2347e+03     7.4226    15.6352     0.4140     0.0426  0.000e+00
      0.469    15.4410 222.552113    275.132    8.91843   89.35446 4.0782e+03     7.4075    15.6944     0.4081     0.0439  0.000e+00
      0.609    15.3338 222.461700    275.751    8.92616   89.22673 2.3273e+03     7.3957    15.7405     0.3996     0.0452  0.000e+00
      0.746    15.2541 222.401432    276.222    8.99119   89.72329 1.7527e+03     7.3903    15.7619     0.4034     0.0465  0.000e+00
      0.838    15.2044 222.944433    277.238    9.14802   91.19114 1.5829e+03     7.3903    15.7619     0.4078     0.0474  0.000e+00
      0.873    15.1808 223.789089    278.452    9.38519   93.50820 1.5080e+03     7.3820    15.7948     0.4070     0.0462  0.000e+00
      0.850    15.1753 223.728761    278.415    9.64947   96.12992 1.5776e+03     7.4033    15.7109     0.4005     0.0465  0.000e+00
      0.781    15.2284 223.698554    278.010    9.85619   98.30142 1.8616e+03     7.4029    15.7125     0.3942     0.0465  0.000e+00
      0.695    15.3002 223.969997    277.852    9.97767   99.66639 2.0638e+03     7.4382    15.5743     0.3850     0.0460  0.000e+00
      0.617    15.3480 224.211294    277.821   10.03515  100.34354 2.3652e+03     7.4475    15.5381     0.3771     0.0426  0.000e+00
      0.546    15.3768 224.392274    277.847   10.00601  100.11403 2.5607e+03     7.4167    15.6582     0.3797     0.0419  0.000e+00
      0.483    15.3949 224.573263    277.947    9.89901   99.08180 2.5837e+03     7.4344    15.5891     0.3688     0.0422  0.000e+00
      0.432    15.4080 224.663755    277.969    9.73048   97.42232 4.9424e+03     7.4352    15.5858     0.3624     0.0431  0.000e+00
      0.390    15.4162 224.512911    277.726    9.53421   95.47394 5.2494e+03     7.4133    15.6714     0.3792     0.0464  0.000e+00
      0.376    15.4202 223.969903    277.027    9.33536   93.49054 5.2706e+03     7.4159    15.6615     0.3917     0.0484  0.000e+00
      0.404    15.3963 223.457097    276.556    9.14998   91.58698 5.2818e+03     7.4024    15.7142     0.4002     0.0495  0.000e+00
      0.474    15.3431 222.672842    275.948    8.97099   89.69295 3.2863e+03     7.3841    15.7865     0.4040     0.0506  0.000e+00
      0.559    15.2873 222.401404    275.994    8.83959   88.27343 2.2852e+03     7.3583    15.8885     0.4107     0.0491  0.000e+00
      0.651    15.2418 222.522096    276.456    8.80007   87.79297 2.0758e+03     7.3591    15.8852     0.4089     0.0478  0.000e+00
      0.734    15.2100 222.612614    276.788    8.88609   88.59050 1.8052e+03     7.3455    15.9395     0.4039     0.0448  0.000e+00
      0.798    15.1916 222.914277    277.290    9.06562   90.34473 1.6703e+03     7.3591    15.8852     0.3953     0.0438  0.000e+00
      0.830    15.1851 223.758919    278.385    9.30395   92.70725 1.6786e+03     7.3732    15.8293     0.4205     0.0425  0.000e+00
      0.815    15.1835 223.758920    278.396    9.53252   94.98154 1.6435e+03     7.3570    15.8935     0.4305     0.0439  0.000e+00
      0.751    15.2335 223.608052    277.862    9.70812   96.83513 1.9901e+03     7.4037    15.7092     0.4277     0.0414  0.000e+00
      0.662    15.3045 223.788995    277.597    9.80588   97.95951 2.5064e+03     7.4033    15.7109     0.4270     0.0427  0.000e+00
      0.564    15.3538 223.939789    277.445    9.83148   98.31910 2.4814e+03     7.4251    15.6253     0.4147     0.0426  0.000e+00
      0.493    15.3840 223.969932    277.275    9.79289   97.99656 3.3598e+03     7.4632    15.4773     0.4032     0.0420  0.000e+00
      0.460    15.4038 223.879418    277.027    9.68748   96.98286 2.1697e+03     7.4070    15.6961     0.4076     0.0444  0.000e+00
      0.443    15.4140 223.909576    276.995    9.53919   95.51908 3.1082e+03     7.3836    15.7882     0.3992     0.0438  0.000e+00
      0.441    15.4154 223.939742    277.022    9.37075   93.83538 3.0859e+03     7.3624    15.8721     0.3806     0.0397  0.000e+00
      0.451    15.3919 223.758761    276.960    9.21035   92.18264 5.2227e+03     7.3265    16.0152     0.3735     0.0414  0.000e+00
      0.485    15.3520 223.095145    276.411    9.05799   90.58023 4.7284e+03     7.3269    16.0135     0.3796     0.0420  0.000e+00
      0.551    15.3045 222.612542    276.138    8.91981   89.10727 2.7899e+03     7.3393    15.9642     0.3840     0.0426  0.000e+00
      0.630    15.2616 222.461752    276.245    8.82315   88.06060 2.2008e+03     7.3513    15.9165     0.3935     0.0439  0.000e+00
      0.704    15.2257 222.461780    276.492    8.78927   87.65476 1.7304e+03     7.3389    15.9658     0.4071     0.0420  0.000e+00
      0.761    15.1997 222.884105    277.196    8.84546   88.16614 1.8793e+03     7.3537    15.9066     0.4176     0.0453  0.000e+00
      0.789    15.1874 223.849416    278.481    8.97796   89.46355 1.8074e+03     7.3749    15.8227     0.4166     0.0486  0.000e+00
      0.779    15.1781 224.241588    279.034    9.17065   91.36553 1.8757e+03     7.3736    15.8277     0.4218     0.0492  0.000e+00
      0.745    15.2071 224.271734    278.870    9.35888   93.29892 1.9006e+03     7.3691    15.8458     0.4381     0.0484  0.000e+00
      0.690    15.2881 224.151006    278.160    9.48904   94.76100 1.9359e+03     7.3778    15.8112     0.4453     0.0470  0.000e+00
      0.616    15.3564 223.969955    277.465    9.56816   95.69117 2.1709e+03     7.3542    15.9050     0.4293     0.0470  0.000e+00
      0.538    15.4095 223.909581    277.025    9.59442   96.06297 2.5388e+03     7.3811    15.7981     0.4078     0.0471  0.000e+00
      0.453    15.4503 224.090549    276.970    9.54598   95.66150 3.4386e+03     7.5849    15.0134     0.3878     0.0462  0.000e+00
      0.381    15.4797 224.030193    276.694    9.43581   94.61704 5.3877e+03     7.4293    15.6089     0.3841     0.0412  0.000e+00
      0.354    15.4924 223.939684    276.495    9.28042   93.08413 5.1916e+03     7.3949    15.7438     0.3842     0.0446  0.000e+00
      0.388    15.4859 223.638027    276.167    9.10076   91.26927 5.2053e+03     7.4100    15.6845     0.3767     0.0447  0.000e+00
      0.484    15.4208 222.552127    275.269    8.94516   89.58359 2.9414e+03     7.4008    15.7207     0.3706     0.0436  0.000e+00
      0.590    15.3382 222.341039    275.571    8.82646   88.23851 2.0551e+03     7.4297    15.6072     0.3720     0.0421  0.000e+00
      0.675    15.2711 222.461747    276.180    8.78219   87.66958 1.7788e+03     7.4205    15.6434     0.3812     0.0441  0.000e+00
      0.749    15.2287 222.612601    276.659    8.84236   88.18997 1.7527e+03     7.4163    15.6599     0.4033     0.0446  0.000e+00
      0.796    15.2082 223.095255    277.400    8.97302   89.45402 1.8966e+03     7.4045    15.7059     0.4149     0.0437  0.000e+00
      0.811    15.1999 223.638243    278.132    9.09855   90.68941 1.6447e+03     7.3920    15.7553     0.4045     0.0452  0.000e+00
      0.791    15.1947 223.668413    278.206    9.26164   92.30471 1.8020e+03     7.4483    15.5349     0.3928     0.0484  0.000e+00
      0.734    15.2412 223.577880    277.772    9.35594   93.33756 1.8946e+03     7.4091    15.6878     0.3948     0.0508  0.000e+00
      0.649    15.3117 223.547661    277.249    9.40731   93.99214 2.0207e+03     7.4175    15.6549     0.3854     0.0517  0.000e+00
      0.548    15.3582 223.698455    277.116    9.42085   94.22137 2.9265e+03     7.4991    15.3391     0.3718     0.0488  0.000e+00
      0.457    15.3859 223.758765    277.000    9.39218   93.99059 4.1316e+03     7.4348    15.5875     0.3703     0.0534  0.000e+00
      0.396    15.4035 223.698419    276.805    9.31855   93.28877 5.2439e+03     7.4251    15.6253     0.3632     0.0506  0.000e+00
      0.380    15.4126 223.517416    276.519    9.22089   92.32901 5.2181e+03     7.4075    15.6944     0.3626     0.0494  0.000e+00
      0.417    15.4000 223.095108    276.083    9.11810   91.27502 5.2448e+03     7.3766    15.8161     0.3689     0.0510  0.000e+00
      0.494    15.3477 222.401359    275.581    9.01502   90.14176 2.5837e+03     7.3537    15.9066     0.3655     0.0492  0.000e+00
      0.585    15.2873 222.220420    275.770    8.91723   89.04854 2.3631e+03     7.3824    15.7931     0.3645     0.0488  0.000e+00
      0.659    15.2349 222.250623    276.166    8.86000   88.37763 2.0465e+03     7.3945    15.7454     0.3661     0.0467  0.000e+00
      0.703    15.1996 222.853939    277.159    8.89071   88.61683 1.8356e+03     7.3982    15.7306     0.3583     0.0454  0.000e+00
      0.717    15.1855 223.457256    278.007    9.00466   89.72580 2.0678e+03     7.3774    15.8129     0.3591     0.0463  0.000e+00
      0.706    15.1774 223.728756    278.401    9.14425   91.10087 1.9699e+03     7.3899    15.7635     0.3645     0.0459  0.000e+00
      0.696    15.2010 223.698572    278.200    9.27781   92.47845 2.0222e+03     7.4049    15.7043     0.3548     0.0436  0.000e+00
      0.683    15.2575 223.819196    277.959    9.37803   93.59079 2.0685e+03     7.4471    15.5398     0.3445     0.0426  0.000e+00
      0.659    15.3081 223.758826    277.535    9.44346   94.34625 2.0239e+03     7.4062    15.6994     0.3515     0.0455  0.000e+00
      0.630    15.3437 223.728633    277.253    9.48934   94.87695 1.8737e+03     7.4222    15.6368     0.3608     0.0468  0.000e+00
      0.595    15.3747 223.698444    277.003    9.49123   94.95888 2.4784e+03     7.4505    15.5266     0.3664     0.0462  0.000e+00
      0.566    15.3983 223.728592    276.878    9.42962   94.39020 2.5715e+03     7.4475    15.5381     0.3751     0.0468  0.000e+00
      0.549    15.4183 223.788910    276.815    9.33206   93.45374 2.7102e+03     7.4344    15.5891     0.3904     0.0425  0.000e+00
      0.539    15.4310 223.879399    276.841    9.22725   92.42927 2.1342e+03     7.4297    15.6072     0.3790     0.0400  0.000e+00
      0.533    15.4308 223.849233    276.805    9.09379   91.09196 2.6719e+03     7.4726    15.4411     0.3738     0.0404  0.000e+00
      0.523    15.4279 223.879401    276.862    8.96054   89.75160 2.7597e+03     7.4674    15.4608     0.3889     0.0413  0.000e+00
      0.523    15.4263 223.849236    276.835    8.81676   88.30849 2.5751e+03     7.4407    15.5645     0.3806     0.0420  0.000e+00
      0.536    15.4231 223.728574    276.708    8.67877   86.92043 2.1599e+03     7.4306    15.6039     0.3721     0.0443  0.000e+00
      0.564    15.4152 223.698414    276.725    8.53673   85.48332 2.6672e+03     7.4522    15.5200     0.3754     0.0462  0.000e+00
      0.616    15.3893 223.396775    276.529    8.42589   84.32654 2.3363e+03     7.4479    15.5365     0.3885     0.0457  0.000e+00
      0.668    15.3401 223.095157    276.493    8.33987   83.37756 1.9322e+03     7.4399    15.5678     0.4003     0.0452  0.000e+00
      0.711    15.2952 223.095191    276.801    8.28040   82.70339 1.7713e+03     7.4395    15.5694     0.3927     0.0471  0.000e+00
      0.728    15.2740 223.789019    277.808    8.23616   82.22431 1.7882e+03     7.4217    15.6385     0.3946     0.0468  0.000e+00
      0.711    15.2628 223.970025    278.110    8.20375   81.88115 1.8167e+03     7.4226    15.6352     0.4009     0.0433  0.000e+00
      0.664    15.2673 223.970021    278.079    8.17919   81.64393 2.4998e+03     7.4382    15.5743     0.4081     0.0423  0.000e+00
      0.600    15.3279 224.030308    277.736    8.15867   81.54503 2.4507e+03     7.4615    15.4839     0.3957     0.0426  0.000e+00
      0.547    15.3776 223.909605    277.244    8.15451   81.59027 2.6691e+03     7.4636    15.4756     0.3855     0.0439  0.000e+00
      0.526    15.4097 223.728583    276.800    8.21019   82.20382 2.6804e+03     7.4802    15.4115     0.3900     0.0449  0.000e+00
      0.524    15.4263 223.698405    276.649    8.25218   82.65353 2.3790e+03     7.5128    15.2865     0.3886     0.0442  0.000e+00
      0.533    15.4250 223.638074    276.583    8.29789   83.10915 2.2660e+03     7.4905    15.3720     0.3917     0.0446  0.000e+00
      0.550    15.3876 223.607936    276.802    8.35747   83.63888 2.7894e+03     7.4999    15.3358     0.3956     0.0430  0.000e+00
      0.562    15.3431 223.577802    277.070    8.39399   83.92430 2.6583e+03     7.5076    15.3062     0.4045     0.0427  0.000e+00
      0.582    15.3094 223.366667    277.040    8.41269   84.05043 2.3130e+03     7.4696    15.4526     0.4125     0.0393  0.000e+00
      0.597    15.2897 223.276184    277.063    8.40956   83.98367 1.6718e+03     7.4789    15.4164     0.4203     0.0382  0.000e+00
      0.604    15.2682 223.366697    277.324    8.36364   83.48642 1.9720e+03     7.4926    15.3638     0.4307     0.0431  0.000e+00
      0.608    15.2569 223.758862    277.889    8.32808   83.11151 2.6523e+03     7.4564    15.5036     0.4543     0.0468  0.000e+00
      0.608    15.2572 223.879527    278.036    8.29710   82.80299 2.3953e+03     7.4505    15.5266     0.4331     0.0455  0.000e+00
      0.616    15.2483 223.698536    277.873    8.28210   82.63735 2.0897e+03     7.4466    15.5414     0.4134     0.0477  0.000e+00
      0.639    15.2312 223.396890    277.616    8.28231   82.60898 2.0439e+03     7.4373    15.5776     0.4163     0.0480  0.000e+00
      0.662    15.2128 223.336573    277.668    8.29493   82.70218 1.9438e+03     7.4327    15.5957     0.4554     0.0457  0.000e+00
      0.679    15.1982 223.547744    278.032    8.33103   83.03611 1.8642e+03     7.4268    15.6187     0.4553     0.0439  0.000e+00
      0.676    15.1930 223.909742    278.518    8.38036   83.51849 2.0945e+03     7.4251    15.6253     0.4414     0.0437  0.000e+00
      0.643    15.1924 224.151075    278.822    8.43356   84.04785 2.2560e+03     7.4297    15.6072     0.4318     0.0436  0.000e+00
      0.590    15.2284 224.090714    278.497    8.45235   84.30024 2.5454e+03     7.4264    15.6204     0.4179     0.0453  0.000e+00
      0.532    15.3178 224.090647    277.880    8.43623   84.30096 2.1163e+03     7.4344    15.5891     0.4075     0.0443  0.000e+00
      0.497    15.3860 223.788932    277.037    8.40543   84.11604 2.2779e+03     7.4424    15.5579     0.4175     0.0449  0.000e+00
      0.502    15.4153 223.517417    276.500    8.39820   84.09640 2.3495e+03     7.4564    15.5036     0.4144     0.0477  0.000e+00
      0.530    15.4077 223.336428    276.328    8.41806   84.28147 2.3832e+03     7.4995    15.3375     0.4208     0.0488  0.000e+00
      0.570    15.3583 223.034811    276.293    8.47518   84.76346 2.0246e+03     7.4807    15.4098     0.4270     0.0502  0.000e+00
      0.613    15.3108 222.853857    276.394    8.55308   85.45541 1.9716e+03     7.4602    15.4888     0.4334     0.0473  0.000e+00
      0.648    15.2765 222.763388    276.518    8.61915   86.05208 2.0382e+03     7.4424    15.5579     0.4625     0.0437  0.000e+00
      0.666    15.2545 223.215880    277.231    8.68274   86.64620 2.2363e+03     7.4721    15.4427     0.4534     0.0424  0.000e+00
      0.666    15.2493 223.698537    277.866    8.73174   87.12566 2.0133e+03     7.4555    15.5069     0.4491     0.0450  0.000e+00
      0.646    15.2419 223.970039    278.254    8.76235   87.41726 2.1515e+03     7.4551    15.5085     0.4392     0.0450  0.000e+00
      0.608    15.2575 224.090693    278.297    8.76278   87.45084 2.3932e+03     7.4615    15.4839     0.4344     0.0446  0.000e+00
      0.564    15.3083 224.090655    277.946    8.71861   87.10488 2.5769e+03     7.4670    15.4625     0.4588     0.0439  0.000e+00
      0.534    15.3516 223.969956    277.498    8.65590   86.55875 2.6254e+03     7.4696    15.4526     0.4639     0.0437  0.000e+00
      0.538    15.3682 223.668282    277.010    8.61324   86.16265 2.6663e+03     7.4811    15.4082     0.4483     0.0423  0.000e+00
      0.571    15.3667 223.396790    276.684    8.61060   86.13349 2.3429e+03     7.4931    15.3621     0.4379     0.0430  0.000e+00
      0.616    15.3498 223.155480    276.501    8.64599   86.45600 2.0108e+03     7.4670    15.4625     0.4193     0.0404  0.000e+00
      0.653    15.3139 223.034845    276.597    8.69977   86.92691 2.3528e+03     7.4585    15.4954     0.4355     0.0407  0.000e+00
      0.673    15.2829 223.396853    277.260    8.74576   87.32838 1.7285e+03     7.4538    15.5135     0.4295     0.0416  0.000e+00
      0.665    15.2666 223.789023    277.859    8.77505   87.59044 1.8783e+03     7.4670    15.4625     0.4149     0.0399  0.000e+00
      0.629    15.2527 224.030364    278.255    8.77752   87.58889 2.1107e+03     7.4978    15.3440     0.4046     0.0398  0.000e+00
      0.579    15.2910 224.030335    277.990    8.73101   87.19646 2.5135e+03     7.4653    15.4691     0.4196     0.0414  0.000e+00
      0.539    15.3554 223.819122    277.285    8.65828   86.58953 2.6714e+03     7.5076    15.3062     0.4533     0.0463  0.000e+00
      0.539    15.3918 223.517435    276.661    8.57281   85.80155 2.5437e+03     7.4828    15.4016     0.4510     0.0484  0.000e+00
      0.566    15.3998 223.366601    276.420    8.53359   85.42353 2.2160e+03     7.4892    15.3769     0.4342     0.0471  0.000e+00
      0.600    15.3714 223.276125    276.502    8.54776   85.51340 2.1694e+03     7.4636    15.4756     0.4095     0.0489  0.000e+00
      0.620    15.3253 223.306325    276.856    8.60445   85.99542 2.6342e+03     7.4517    15.5217     0.3940     0.0452  0.000e+00
      0.618    15.2966 223.698501    277.540    8.67460   86.64340 2.0418e+03     7.4619    15.4822     0.4192     0.0417  0.000e+00
      0.599    15.2831 223.819176    277.782    8.73195   87.19102 2.2067e+03     7.4564    15.5036     0.4012     0.0413  0.000e+00
      0.575    15.2685 223.909685    277.996    8.76268   87.47038 2.5428e+03     7.4679    15.4592     0.3787     0.0444  0.000e+00
      0.557    15.2833 223.939840    277.931    8.75708   87.44228 2.2203e+03     7.4551    15.5085     0.3494     0.0471  0.000e+00
      0.563    15.3059 223.698493    277.475    8.73574   87.27156 1.9971e+03     7.4611    15.4855     0.3307     0.0449  0.000e+00
      0.597    15.3215 223.517487    277.144    8.66591   86.60285 2.3878e+03     7.4628    15.4789     0.3278     0.0436  0.000e+00
      0.638    15.3185 223.215833    276.790    8.58578   85.79649 2.0411e+03     7.4602    15.4888     0.3347     0.0446  0.000e+00
      0.668    15.2957 223.215851    276.947    8.50098   84.90747 2.0404e+03     7.4666    15.4641     0.3323     0.0417  0.000e+00
      0.675    15.2729 223.608022    277.591    8.42972   84.15468 2.3175e+03     7.4892    15.3769     0.3404     0.0420  0.000e+00
      0.657    15.2599 223.909693    278.055    8.36474   83.48274 1.9103e+03     7.4340    15.5908     0.3457     0.0453  0.000e+00
      0.620    15.2567 223.970027    278.152    8.31538   82.98449 2.6523e+03     7.4441    15.5513     0.3502     0.0470  0.000e+00
      0.575    15.3144 224.030318    277.829    8.26279   82.56172 2.5236e+03     7.4424    15.5579     0.3619     0.0504  0.000e+00
      0.545    15.3731 223.939775    277.313    8.23625   82.40015 2.7992e+03     7.4632    15.4773     0.3509     0.0482  0.000e+00
      0.534    15.4113 223.758749    276.827    8.24281   82.53323 2.3611e+03     7.4845    15.3950     0.3600     0.0468  0.000e+00
      0.551    15.4265 223.607907    276.535    8.26652   82.79768 2.6075e+03     7.5038    15.3210     0.3703     0.0508  0.000e+00
      0.588    15.4182 223.396753    276.331    8.32417   83.36014 2.1241e+03     7.4935    15.3605     0.3594     0.0493  0.000e+00
      0.631    15.3755 223.185627    276.362    8.37271   83.76953 2.1204e+03     7.4645    15.4723     0.3566     0.0468  0.000e+00
      0.652    15.3241 223.336492    276.902    8.44834   84.43313 2.0218e+03     7.4645    15.4723     0.3673     0.0431  0.000e+00
      0.641    15.2951 223.819168    277.700    8.48284   84.72543 2.3590e+03     7.4522    15.5200     0.3674     0.0421  0.000e+00
      0.601    15.2728 224.030348    278.115    8.51921   85.04803 2.2171e+03     7.4845    15.3950     0.3552     0.0405  0.000e+00
      0.548    15.2945 223.939832    277.853    8.49405   84.83635 2.6808e+03     7.4828    15.4016     0.3486     0.0453  0.000e+00
      0.518    15.3480 223.577798    277.036    8.46474   84.64057 4.3820e+03     7.4965    15.3490     0.3451     0.0513  0.000e+00
      0.542    15.3754 223.185625    276.363    8.44474   84.49001 2.7452e+03     7.4772    15.4230     0.3560     0.0507  0.000e+00
      0.595    15.3593 222.733162    275.912    8.44462   84.45960 2.1606e+03     7.4649    15.4707     0.3653     0.0488  0.000e+00
      0.649    15.3039 222.371230    275.843    8.45438   84.45657 1.9069e+03     7.4615    15.4839     0.3605     0.0497  0.000e+00
      0.682    15.2558 222.552251    276.397    8.51746   84.99901 1.9472e+03     7.4743    15.4345     0.3530     0.0483  0.000e+00
      0.687    15.2307 223.306395    277.507    8.59133   85.69022 2.1508e+03     7.4619    15.4822     0.3619     0.0477  0.000e+00
      0.667    15.2136 223.698563    278.113    8.66639   86.40728 2.1406e+03     7.4564    15.5036     0.3633     0.0468  0.000e+00
      0.620    15.2132 223.879560    278.341    8.74258   87.16621 2.1219e+03     7.4922    15.3654     0.3626     0.0482  0.000e+00
      0.559    15.2594 223.849358    277.983    8.78544   87.68062 2.4558e+03     7.4862    15.3884     0.3605     0.0458  0.000e+00
      0.504    15.3136 223.668320    277.385    8.81589   88.08670 2.6654e+03     7.5513    15.1401     0.3512     0.0434  0.000e+00
      0.476    15.3480 223.276140    276.663    8.84031   88.39586 5.1399e+03     7.5210    15.2552     0.3435     0.0417  0.000e+00
      0.502    15.3661 223.034804    276.239    8.86901   88.71720 3.3433e+03     7.5322    15.2124     0.3487     0.0375  0.000e+00
      0.572    15.3536 222.672836    275.877    8.89674   88.97062 2.5924e+03     7.5236    15.2453     0.3530     0.0369  0.000e+00
      0.643    15.3017 222.220411    275.671    8.94016   89.30513 1.9939e+03     7.4918    15.3671     0.3650     0.0378  0.000e+00
      0.695    15.2530 222.250611    276.042    8.97497   89.55931 2.1074e+03     7.4768    15.4246     0.3833     0.0406  0.000e+00
      0.719    15.2226 222.914253    277.075    9.01214   89.87171 1.8750e+03     7.4555    15.5069     0.3828     0.0410  0.000e+00
      0.707    15.2039 223.396911    277.805    9.05985   90.31123 1.6871e+03     7.4747    15.4329     0.3806     0.0439  0.000e+00
      0.667    15.1940 223.638245    278.173    9.10488   90.74103 2.1564e+03     7.4918    15.3671     0.3799     0.0465  0.000e+00
      0.601    15.2327 223.547717    277.794    9.12347   91.00175 2.2473e+03     7.5180    15.2667     0.3773     0.0484  0.000e+00
      0.519    15.3030 223.457167    277.196    9.13125   91.21692 2.6272e+03     7.5249    15.2404     0.3772     0.0459  0.000e+00
      0.461    15.3507 223.095145    276.420    9.12821   91.27983 5.1120e+03     7.5214    15.2536     0.3658     0.0459  0.000e+00
      0.458    15.3672 223.095133    276.307    9.11697   91.19953 5.1255e+03     7.5240    15.2437     0.3531     0.0446  0.000e+00
      0.503    15.3575 222.733161    275.925    9.10478   91.05871 3.2200e+03     7.5167    15.2717     0.3547     0.0446  0.000e+00
      0.577    15.3182 222.280725    275.633    9.08379   90.77203 3.1450e+03     7.5163    15.2733     0.3516     0.0429  0.000e+00
      0.655    15.2725 222.190268    275.833    9.04443   90.29022 2.0993e+03     7.5016    15.3292     0.3547     0.0416  0.000e+00
      0.710    15.2345 222.220460    276.132    9.00099   89.78315 1.7285e+03     7.4884    15.3802     0.3568     0.0429  0.000e+00
      0.739    15.2101 222.823767    277.049    9.02828   90.00844 1.6691e+03     7.4866    15.3868     0.3501     0.0417  0.000e+00
      0.736    15.1980 223.215923    277.620    9.12463   90.94559 1.6121e+03     7.4896    15.3753     0.3589     0.0422  0.000e+00
      0.705    15.2030 223.246084    277.623    9.26128   92.31736 2.2489e+03     7.5064    15.3111     0.3639     0.0423  0.000e+00
      0.646    15.2497 223.155553    277.189    9.38303   93.62481 2.3869e+03     7.4965    15.3490     0.3645     0.0442  0.000e+00
      0.570    15.2994 223.155515    276.847    9.48091   94.70242 2.4502e+03     7.5120    15.2897     0.3655     0.0463  0.000e+00
      0.503    15.3321 223.155490    276.622    9.54587   95.41823 3.0120e+03     7.5175    15.2684     0.3599     0.0463  0.000e+00
      0.458    15.3512 222.974484    276.267    9.56895   95.68816 2.9045e+03     7.5132    15.2848     0.3558     0.0497  0.000e+00
      0.438    15.3596 222.914147    276.135    9.53102   95.32600 5.1192e+03     7.5051    15.3161     0.4053     0.0513  0.000e+00
      0.457    15.3553 222.853821    276.090    9.42382   94.24493 5.0949e+03     7.5021    15.3276     0.3926     0.0495  0.000e+00
      0.520    15.3188 222.310888    275.667    9.28666   92.80040 2.4714e+03     7.4892    15.3769     0.3765     0.0475  0.000e+00
      0.605    15.2683 222.099778    275.750    9.14479   91.28381 2.1629e+03     7.4884    15.3802     0.3712     0.0449  0.000e+00
      0.680    15.2243 221.979157    275.902    9.02696   90.02239 1.8942e+03     7.4849    15.3934     0.3616     0.0410  0.000e+00
      0.728    15.1911 222.220492    276.430    8.95396   89.23077 1.8803e+03     7.4926    15.3638     0.3651     0.0399  0.000e+00
      0.751    15.1724 222.672971    277.122    8.95852   89.24063 2.0930e+03     7.4999    15.3358     0.3737     0.0391  0.000e+00
      0.744    15.1623 222.914297    277.492    9.02450   89.87844 2.0350e+03     7.5038    15.3210     0.3819     0.0404  0.000e+00
      0.720    15.1640 222.974625    277.555    9.14308   91.06271 1.8365e+03     7.4884    15.3802     0.3726     0.0382  0.000e+00
      0.681    15.1953 223.034932    277.414    9.23931   92.08307 1.9862e+03     7.4884    15.3802     0.3529     0.0390  0.000e+00
      0.624    15.2413 222.884072    276.909    9.30796   92.85902 2.1546e+03     7.4849    15.3934     0.3572     0.0391  0.000e+00
      0.552    15.2784 222.914209    276.692    9.34730   93.32570 2.3735e+03     7.4683    15.4575     0.3568     0.0376  0.000e+00
      0.478    15.3034 222.884024    276.482    9.33470   93.25002 2.8449e+03     7.4738    15.4362     0.3483     0.0391  0.000e+00
      0.423    15.3180 222.733188    276.195    9.26715   92.60417 5.1399e+03     7.4991    15.3391     0.3413     0.0401  0.000e+00
      0.418    15.3251 222.733183    276.147    9.17793   91.72654 5.1543e+03     7.4781    15.4197     0.3442     0.0415  0.000e+00
      0.467    15.3095 222.461714    275.917    9.05437   90.46119 2.9409e+03     7.4687    15.4559     0.3413     0.0417  0.000e+00
      0.542    15.2721 222.039447    275.649    8.91974   89.04461 2.8826e+03     7.4551    15.5085     0.3373     0.0411  0.000e+00
      0.621    15.2326 221.979150    275.845    8.81694   87.94366 2.0182e+03     7.4466    15.5414     0.3466     0.0452  0.000e+00
      0.682    15.2021 222.039500    276.129    8.80046   87.72183 1.7481e+03     7.4965    15.3490     0.3389     0.0471  0.000e+00
      0.723    15.1840 222.522139    276.854    8.89377   88.61752 1.9166e+03     7.5008    15.3325     0.3500     0.0471  0.000e+00
      0.734    15.1742 222.733299    277.184    9.07238   90.37836 1.8411e+03     7.4892    15.3769     0.3552     0.0447  0.000e+00
      0.717    15.1714 222.793630    277.279    9.26856   92.32712 2.0087e+03     7.4871    15.3852     0.3510     0.0415  0.000e+00
      0.679    15.1915 222.763450    277.102    9.43280   94.00375 2.2148e+03     7.5132    15.2848     0.3540     0.0421  0.000e+00
      0.628    15.2256 222.733259    276.830    9.54864   95.22789 2.1470e+03     7.5068    15.3095     0.3502     0.0391  0.000e+00
      0.579    15.2548 222.733237    276.629    9.60421   95.84213 2.1920e+03     7.5262    15.2355     0.3495     0.0420  0.000e+00
      0.549    15.2732 222.612565    276.353    9.58838   95.72192 2.7260e+03     7.5301    15.2207     0.3536     0.0437  0.000e+00
      0.552    15.2830 222.552229    276.211    9.49976   94.85721 2.3130e+03     7.5158    15.2749     0.3571     0.0433  0.000e+00
      0.568    15.2892 222.552224    276.169    9.37528   93.62655 2.3756e+03     7.5012    15.3309     0.3457     0.0446  0.000e+00
      0.576    15.2926 222.672880    276.295    9.22721   92.15471 2.2828e+03     7.5188    15.2634     0.3376     0.0436  0.000e+00
      0.572    15.2950 222.763373    276.391    9.09460   90.83500 2.2458e+03     7.5175    15.2684     0.3356     0.0412  0.000e+00
      0.554    15.2974 222.793535    276.411    8.97113   89.60638 2.3037e+03     7.5107    15.2947     0.3500     0.0426  0.000e+00
      0.530    15.2975 222.823700    276.448    8.86122   88.50885 2.4335e+03     7.5214    15.2536     0.3459     0.0393  0.000e+00
      0.527    15.2962 222.853865    276.494    8.75535   87.44895 2.6574e+03     7.5145    15.2799     0.3385     0.0400  0.000e+00
      0.558    15.2921 222.672880    276.298    8.65571   86.44610 2.2696e+03     7.4982    15.3424     0.3264     0.0410  0.000e+00
      0.613    15.2816 222.461738    276.108    8.55427   85.41365 1.8942e+03     7.5132    15.2848     0.3368     0.0411  0.000e+00
      0.671    15.2556 222.371265    276.174    8.47122   84.53713 2.1993e+03     7.5046    15.3177     0.3398     0.0434  0.000e+00
      0.717    15.2292 222.341121    276.318    8.40810   83.85965 1.8395e+03     7.5132    15.2848     0.3411     0.0427  0.000e+00
      0.741    15.2135 222.522118    276.651    8.35577   83.30980 1.8580e+03     7.5232    15.2470     0.3442     0.0433  0.000e+00
      0.743    15.2078 222.733275    276.953    8.32150   82.95796 1.9475e+03     7.5175    15.2684     0.3478     0.0433  0.000e+00
      0.717    15.2015 222.823773    277.109    8.29708   82.70330 1.8603e+03     7.5021    15.3276     0.3516     0.0436  0.000e+00
      0.660    15.2134 222.853928    277.064    8.27376   82.49197 1.8096e+03     7.5072    15.3078     0.3687     0.0401  0.000e+00
      0.586    15.2488 222.823736    276.783    8.25913   82.40879 2.2008e+03     7.5188    15.2634     0.3748     0.0406  0.000e+00
      0.515    15.2825 222.733216    276.439    8.27504   82.62716 1.8989e+03     7.5318    15.2141     0.3698     0.0414  0.000e+00
      0.464    15.3017 222.733201    276.307    8.29681   82.87871 4.0149e+03     7.5296    15.2223     0.3622     0.0400  0.000e+00
      0.452    15.3119 222.672864    276.162    8.32556   83.18411 2.5806e+03     7.5188    15.2634     0.3624     0.0421  0.000e+00
      0.478    15.3112 222.612536    276.093    8.35817   83.50862 2.1144e+03     7.5098    15.2980     0.3616     0.0457  0.000e+00
      0.520    15.2833 222.341078    275.947    8.40322   83.90834 2.1885e+03     7.5270    15.2322     0.3599     0.0431  0.000e+00
      0.571    15.2520 222.250609    276.049    8.45069   84.32579 2.3122e+03     7.4952    15.3539     0.3647     0.0423  0.000e+00
      0.616    15.2244 222.160138    276.126    8.49682   84.73575 2.2688e+03     7.4948    15.3555     0.3740     0.0426  0.000e+00
      0.664    15.2012 222.099828    276.210    8.52989   85.02328 1.8511e+03     7.4884    15.3802     0.3561     0.0446  0.000e+00
      0.713    15.1776 222.039519    276.298    8.55895   85.26948 1.9271e+03     7.5120    15.2897     0.3546     0.0452  0.000e+00
      0.739    15.1574 222.220517    276.662    8.58721   85.51402 1.7234e+03     7.5094    15.2996     0.3513     0.0442  0.000e+00
      0.728    15.1474 222.522166    277.106    8.62699   85.89188 1.9046e+03     7.5085    15.3029     0.3493     0.0449  0.000e+00
      0.690    15.1384 222.733324    277.432    8.67786   86.38156 2.0307e+03     7.5029    15.3243     0.3553     0.0441  0.000e+00
      0.638    15.1553 222.672981    277.239    8.71802   86.81302 2.0475e+03     7.5396    15.1845     0.3596     0.0439  0.000e+00
      0.586    15.1959 222.672951    276.959    8.74389   87.14659 2.2553e+03     7.5029    15.3243     0.3671     0.0464  0.000e+00
      0.551    15.2313 222.612595    276.640    8.78379   87.61087 2.2168e+03     7.5051    15.3161     0.3606     0.0463  0.000e+00
      0.530    15.2500 222.612581    276.512    8.83371   88.14407 2.4080e+03     7.5335    15.2075     0.3545     0.0430  0.000e+00
      0.525    15.2568 222.461754    276.278    8.88154   88.63424 1.9281e+03     7.5167    15.2717     0.3661     0.0423  0.000e+00
      0.538    15.2586 222.401424    276.191    8.92070   89.02852 2.2458e+03     7.4956    15.3523     0.3700     0.0434  0.000e+00
      0.563    15.2542 222.401428    276.221    8.93082   89.12104 2.2779e+03     7.5270    15.2322     0.3784     0.0448  0.000e+00
      0.592    15.2353 222.401442    276.351    8.92035   88.98055 2.0681e+03     7.5120    15.2897     0.3828     0.0463  0.000e+00
      0.614    15.2152 222.401457    276.489    8.89664   88.70558 2.0368e+03     7.5296    15.2223     0.3787     0.0454  0.000e+00
      0.624    15.2021 222.401467    276.579    8.85711   88.28668 2.0411e+03     7.4982    15.3424     0.3851     0.0457  0.000e+00
      0.629    15.1947 222.552294    276.818    8.80223   87.72568 1.9918e+03     7.5214    15.2536     0.3806     0.0462  0.000e+00
      0.629    15.1876 222.552299    276.867    8.74002   87.09232 2.1966e+03     7.4961    15.3506     0.3837     0.0427  0.000e+00
      0.633    15.1809 222.672962    277.063    8.69863   86.66749 2.1481e+03     7.4965    15.3490     0.3833     0.0434  0.000e+00
      0.631    15.1759 222.672966    277.098    8.66762   86.34920 2.2098e+03     7.5457    15.1614     0.3892     0.0431  0.000e+00
      0.622    15.1716 222.733298    277.202    8.65024   86.16816 2.1230e+03     7.5370    15.1943     0.3817     0.0420  0.000e+00
      0.606    15.1752 222.733295    277.177    8.62405   85.91396 2.0897e+03     7.5483    15.1516     0.3764     0.0419  0.000e+00
      0.593    15.1919 222.733283    277.062    8.58871   85.59248 2.1474e+03     7.5163    15.2733     0.3655     0.0413  0.000e+00
      0.577    15.2119 222.733268    276.924    8.53805   85.12432 2.2596e+03     7.5038    15.3210     0.3587     0.0429  0.000e+00
      0.560    15.2320 222.793583    276.861    8.47199   84.50216 2.4356e+03     7.5232    15.2470     0.3455     0.0434  0.000e+00
      0.541    15.2495 222.823735    276.778    8.38747   83.69062 2.4906e+03     7.5262    15.2355     0.3385     0.0440  0.000e+00
      0.538    15.2632 222.793560    276.646    8.27554   82.59808 2.7159e+03     7.5305    15.2190     0.3374     0.0417  0.000e+00
      0.568    15.2714 222.612566    276.365    8.20767   81.93506 2.0400e+03     7.5171    15.2700     0.3517     0.0426  0.000e+00
      0.617    15.2726 222.522073    276.245    8.15007   81.36205 2.2269e+03     7.5314    15.2157     0.3677     0.0464  0.000e+00
      0.661    15.2500 222.401433    276.250    8.14194   81.24153 1.6689e+03     7.5038    15.3210     0.3678     0.0463  0.000e+00
      0.690    15.2214 222.461783    276.522    8.18679   81.63875 1.6642e+03     7.5305    15.2190     0.3725     0.0433  0.000e+00
      0.696    15.2042 222.612618    276.827    8.25285   82.26721 1.9329e+03     7.5150    15.2782     0.3781     0.0420  0.000e+00
      0.665    15.1932 222.733283    277.053    8.32019   82.91902 2.1078e+03     7.4926    15.3638     0.3787     0.0424  0.000e+00
      0.605    15.2011 222.763441    277.036    8.36519   83.38152 2.4906e+03     7.5214    15.2536     0.3649     0.0462  0.000e+00
      0.541    15.2329 222.793582    276.855    8.39676   83.75335 2.6785e+03     7.5314    15.2157     0.3502     0.0482  0.000e+00
      0.501    15.2546 222.612577    276.480    8.43457   84.16973 2.6185e+03     7.5279    15.2289     0.3516     0.0471  0.000e+00
      0.491    15.2588 222.401423    276.190    8.48682   84.69862 2.6955e+03     7.5210    15.2552     0.3520     0.0479  0.000e+00
      0.517    15.2508 222.310937    276.132    8.55338   85.34819 2.5910e+03     7.5262    15.2355     0.3527     0.0500  0.000e+00
      0.568    15.2330 222.160131    276.067    8.54232   85.20534 2.3322e+03     7.5262    15.2355     0.3459     0.0510  0.000e+00
      0.632    15.2104 221.949002    275.960    8.54391   85.17971 2.3033e+03     7.5072    15.3078     0.3364     0.0486  0.000e+00
      0.690    15.1860 221.979185    276.165    8.52700   84.96656 2.1951e+03     7.5132    15.2848     0.3290     0.0448  0.000e+00
      0.713    15.1696 222.250671    276.615    8.49867   84.65465 1.6703e+03     7.5361    15.1976     0.3278     0.0411  0.000e+00
      0.700    15.1606 222.552320    277.053    8.46932   84.34587 2.0158e+03     7.5292    15.2239     0.3309     0.0408  0.000e+00
      0.655    15.1547 222.672982    277.244    8.45760   84.21852 1.9887e+03     7.5530    15.1335     0.3482     0.0433  0.000e+00
      0.590    15.1801 222.612633    276.993    8.44938   84.18270 2.6893e+03     7.5335    15.2075     0.3566     0.0439  0.000e+00
      0.527    15.2228 222.522107    276.587    8.47681   84.53341 2.6752e+03     7.5400    15.1828     0.3412     0.0410  0.000e+00
      0.502    15.2487 222.341102    276.184    8.52503   85.06151 4.9259e+03     7.5422    15.1746     0.3444     0.0413  0.000e+00
      0.531    15.2543 222.341099    276.145    8.60208   85.84077 2.5765e+03     7.5705    15.0677     0.3484     0.0410  0.000e+00
      0.581    15.2346 221.979147    275.831    8.71195   86.90025 2.3915e+03     7.5509    15.1417     0.3533     0.0401  0.000e+00
      0.627    15.2020 221.918844    275.979    8.83172   88.03325 2.1402e+03     7.5604    15.1055     0.3531     0.0417  0.000e+00
      0.652    15.1752 222.039519    276.314    8.95982   89.25875 1.9575e+03     7.5379    15.1910     0.3547     0.0414  0.000e+00
      0.658    15.1613 222.341169    276.785    9.07605   90.38964 1.9234e+03     7.5279    15.2289     0.3478     0.0426  0.000e+00
      0.645    15.1502 222.401505    276.937    9.16634   91.26710 1.8658e+03     7.5379    15.1910     0.3575     0.0430  0.000e+00
      0.625    15.1417 222.522168    277.146    9.21182   91.70319 2.0393e+03     7.5474    15.1549     0.3703     0.0434  0.000e+00
      0.603    15.1482 222.522163    277.101    9.20913   91.68931 2.0963e+03     7.5871    15.0052     0.3640     0.0421  0.000e+00
      0.584    15.1641 222.552315    277.028    9.16272   91.25842 2.3322e+03     7.5548    15.1269     0.3703     0.0462  0.000e+00
      0.575    15.1861 222.461806    276.765    9.06226   90.30041 2.4356e+03     7.5539    15.1302     0.3655     0.0460  0.000e+00
      0.572    15.1988 222.401468    276.602    8.94857   89.19188 2.1663e+03     7.5530    15.1335     0.3626     0.0411  0.000e+00
      0.581    15.2033 222.310972    276.459    8.84090   88.12723 2.2418e+03     7.5474    15.1549     0.3548     0.0407  0.000e+00
      0.598    15.2015 222.280810    276.433    8.74328   87.15090 2.1808e+03     7.5249    15.2404     0.3552     0.0378  0.000e+00
      0.618    15.1921 222.160161    276.348    8.67342   86.43699 2.0703e+03     7.5076    15.3062     0.3651     0.0371  0.000e+00
      0.629    15.1822 222.160169    276.416    8.62580   85.94410 1.9353e+03     7.5046    15.3177     0.3602     0.0397  0.000e+00
      0.625    15.1758 222.371322    276.723    8.60128   85.68815 1.8996e+03     7.5214    15.2536     0.3592     0.0455  0.000e+00
      0.615    15.1736 222.461816    276.850    8.58334   85.50544 1.9156e+03     7.5029    15.3243     0.3584     0.0463  0.000e+00
      0.593    15.1702 222.461818    276.874    8.56012   85.26783 2.5883e+03     7.5279    15.2289     0.3681     0.0466  0.000e+00
      0.573    15.1775 222.522141    276.899    8.52297   84.91105 2.3819e+03     7.5158    15.2749     0.3741     0.0484  0.000e+00
      0.564    15.1877 222.371312    276.641    8.47440   84.44558 2.7645e+03     7.5184    15.2651     0.3762     0.0477  0.000e+00
      0.567    15.1938 222.280815    276.486    8.42070   83.92158 2.8205e+03     7.5361    15.1976     0.3795     0.0430  0.000e+00
      0.578    15.1929 222.190324    276.380    8.35984   83.31332 2.3553e+03     7.5245    15.2420     0.3815     0.0436  0.000e+00
      0.593    15.1842 222.160166    276.402    8.29754   82.67700 2.0493e+03     7.5184    15.2651     0.3910     0.0427  0.000e+00
      0.608    15.1702 222.099849    276.423    8.25452   82.22362 2.1234e+03     7.5081    15.3046     0.3864     0.0433  0.000e+00
      0.631    15.1575 222.039531    276.436    8.21174   81.77498 1.9431e+03     7.5034    15.3226     0.3703     0.0443  0.000e+00
      0.659    15.1465 222.039540    276.512    8.17662   81.40610 1.7469e+03     7.5008    15.3325     0.3633     0.0440  0.000e+00
      0.677    15.1385 222.099873    276.642    8.14827   81.10998 1.9796e+03     7.5029    15.3243     0.3488     0.0441  0.000e+00
      0.665    15.1366 222.311022    276.918    8.11357   80.76133 1.7383e+03     7.5270    15.2322     0.3339     0.0460  0.000e+00
      0.625    15.1355 222.522172    277.189    8.07756   80.40094 2.6893e+03     7.4862    15.3884     0.3425     0.0458  0.000e+00
      0.563    15.1551 222.522157    277.054    8.03301   79.99119 2.7255e+03     7.4854    15.3917     0.3474     0.0460  0.000e+00
      0.502    15.1891 222.341145    276.594    7.99707   79.69161 4.8012e+03     7.4961    15.3506     0.3461     0.0454  0.000e+00
      0.493    15.2134 222.160143    276.202    7.98185   79.58132 4.4605e+03     7.4905    15.3720     0.3343     0.0436  0.000e+00
      0.547    15.2183 221.858504    275.793    8.01252   79.89552 2.0729e+03     7.5051    15.3161     0.3234     0.0440  0.000e+00
      0.618    15.1980 221.677540    275.707    8.08820   80.61503 2.0264e+03     7.5227    15.2486     0.3178     0.0423  0.000e+00
      0.678    15.1715 221.677561    275.889    8.19879   81.67066 2.0059e+03     7.5249    15.2404     0.3058     0.0440  0.000e+00
      0.706    15.1529 222.039536    276.468    8.37105   83.35327 1.6320e+03     7.5249    15.2404     0.2876     0.0435  0.000e+00
      0.692    15.1440 222.401510    276.979    8.60279   85.64464 1.7450e+03     7.4909    15.3704     0.2894     0.0446  0.000e+00
      0.637    15.1416 222.341182    276.921    8.86841   88.28436 2.1129e+03     7.4961    15.3506     0.3082     0.0462  0.000e+00
      0.561    15.1694 222.310997    276.692    9.09451   90.58930 2.4160e+03     7.5167    15.2717     0.3112     0.0441  0.000e+00
      0.493    15.2033 222.220479    276.346    9.27427   92.44714 2.5174e+03     7.5132    15.2848     0.3098     0.0428  0.000e+00
      0.462    15.2207 222.099810    276.076    9.40522   93.78757 4.8368e+03     7.5279    15.2289     0.3220     0.0409  0.000e+00
      0.501    15.2233 221.979154    275.908    9.49499   94.68796 2.9862e+03     7.5236    15.2453     0.3148     0.0415  0.000e+00
      0.589    15.2036 221.737862    275.744    9.53229   95.01949 1.9451e+03     7.5661    15.0841     0.3132     0.0423  0.000e+00
      0.677    15.1778 221.556904    275.695    9.52465   94.89079 1.8182e+03     7.5513    15.1401     0.3525     0.0440  0.000e+00
      0.731    15.1564 221.737899    276.068    9.52380   94.83874 1.7549e+03     7.5361    15.1976     0.3635     0.0447  0.000e+00
      0.744    15.1435 222.160199    276.682    9.56172   95.19005 1.8349e+03     7.5639    15.0923     0.3571     0.0431  0.000e+00
      0.712    15.1365 222.190367    276.768    9.63332   95.88833 1.8401e+03     7.5557    15.1236     0.3555     0.0437  0.000e+00
      0.647    15.1524 222.099863    276.546    9.68600   96.44559 1.9685e+03     7.5535    15.1318     0.3521     0.0449  0.000e+00
      0.566    15.1776 222.160171    276.447    9.71124   96.74951 2.2648e+03     7.5439    15.1680     0.3565     0.0468  0.000e+00
      0.504    15.1950 222.039502    276.178    9.70683   96.74161 2.5307e+03     7.5387    15.1878     0.3642     0.0481  0.000e+00
      0.486    15.2049 221.949003    275.997    9.66338   96.32919 4.6648e+03     7.5270    15.2322     0.3599     0.0475  0.000e+00
      0.513    15.2049 221.979167    276.034    9.57949   95.49292 2.5428e+03     7.5470    15.1565     0.3632     0.0481  0.000e+00
      0.557    15.1907 221.768034    275.870    9.45295   94.20260 2.0649e+03     7.5296    15.2223     0.3678     0.0455  0.000e+00
      0.599    15.1704 221.677560    275.897    9.31227   92.76006 2.0172e+03     7.5262    15.2355     0.3689     0.0442  0.000e+00
      0.650    15.1525 221.617247    275.944    9.15558   91.16427 2.0853e+03     7.5357    15.1993     0.3758     0.0413  0.000e+00
      0.708    15.1400 221.556931    275.955    9.00508   89.64165 1.8269e+03     7.5465    15.1581     0.3823     0.0439  0.000e+00
      0.760    15.1303 221.617266    276.097    8.85795   88.15861 1.8039e+03     7.5379    15.1910     0.3836     0.0446  0.000e+00
      0.808    15.1236 221.556945    276.068    8.74227   86.99468 1.4366e+03     7.5491    15.1483     0.3895     0.0462  0.000e+00
      0.868    15.1181 221.526787    276.068    8.66703   86.23586 1.4572e+03     7.5409    15.1795     0.3848     0.0450  0.000e+00
      0.924    15.1137 221.677607    276.286    8.65473   86.10532 1.3504e+03     7.5435    15.1697     0.3781     0.0447  0.000e+00
      0.955    15.1117 221.798263    276.451    8.68541   86.40676 1.3102e+03     7.5422    15.1746     0.3761     0.0439  0.000e+00
      0.980    15.1098 221.768101    276.426    8.72874   86.83436 1.2692e+03     7.5674    15.0792     0.3738     0.0449  0.000e+00
      0.991    15.1080 221.858593    276.551    8.77274   87.26871 1.1794e+03     7.5548    15.1269     0.3764     0.0439  0.000e+00
      0.984    15.1133 221.949080    276.628    8.79372   87.48738 1.1664e+03     7.5387    15.1878     0.3772     0.0444  0.000e+00
      0.985    15.1255 221.979234    276.581    8.78050   87.37874 1.2047e+03     7.5314    15.2157     0.3871     0.0443  0.000e+00
      1.007    15.1376 221.888735    276.385    8.73733   86.97180 1.2064e+03     7.5405    15.1812     0.4050     0.0474  0.000e+00
      1.056    15.1445 221.737914    276.150    8.67350   86.34917 1.1564e+03     7.5718    15.0627     0.4064     0.0479  0.000e+00
      1.139    15.1463 221.617262    275.987    8.59884   85.60914 9.7863e+02     7.5661    15.0841     0.4170     0.0472  0.000e+00
      1.245    15.1399 221.496617    275.881    8.56480   85.25853 8.1105e+02     7.5517    15.1384     0.4094     0.0491  0.000e+00
      1.349    15.1268 221.466465    275.933    8.57044   85.29069 6.8025e+02     7.5150    15.2782     0.4046     0.0497  0.000e+00
      1.426    15.1168 221.436311    275.965    8.58653   85.43235 6.3297e+02     7.5262    15.2355     0.4153     0.0503  0.000e+00
      1.477    15.1134 221.737946    276.364    8.62690   85.82791 5.7963e+02     7.5055    15.3144     0.4186     0.0494  0.000e+00
      1.505    15.1101 221.798275    276.462    8.68080   86.35802 5.5355e+02     7.5335    15.2075     0.4169     0.0468  0.000e+00
      1.507    15.1088 221.949094    276.659    8.72330   86.77837 5.5219e+02     7.5085    15.3029     0.4197     0.0459  0.000e+00
      1.501    15.1226 221.918920    276.526    8.74301   87.00033 5.5893e+02     7.5214    15.2536     0.4488     0.0462  0.000e+00
      1.520    15.1421 221.828416    276.279    8.74359   87.04249 5.4191e+02     7.5055    15.3144     0.4512     0.0455  0.000e+00
      1.556    15.1547 221.798244    276.155    8.71906   86.82181 5.1264e+02     7.5366    15.1960     0.4665     0.0452  0.000e+00
      1.607    15.1594 221.768078    276.085    8.70592   86.69977 4.7201e+02     7.5120    15.2897     0.5024     0.0471  0.000e+00
      1.673    15.1562 221.737919    276.069    8.71882   86.82223 4.0953e+02     7.5253    15.2388     0.5263     0.0475  0.000e+00
      1.737    15.1470 221.677600    276.057    8.73849   87.00088 3.5998e+02     7.5283    15.2272     0.5395     0.0470  0.000e+00
      1.781    15.1409 221.798259    276.250    8.76788   87.28209 3.3987e+02     7.5405    15.1812     0.5471     0.0457  0.000e+00
      1.803    15.1376 221.888752    276.385    8.78487   87.44501 3.4263e+02     7.5491    15.1483     0.5191     0.0451  0.000e+00
      1.819    15.1337 221.858592    276.375    8.78656   87.45446 3.4675e+02     7.5491    15.1483     0.4934     0.0452  0.000e+00
      1.844    15.1324 221.918920    276.459    8.76543   87.24165 3.4779e+02     7.5180    15.2667     0.4929     0.0443  0.000e+00
      1.878    15.1355 221.828428    276.324    8.72001   86.79559 3.4330e+02     7.5154    15.2766     0.4956     0.0457  0.000e+00
      1.934    15.1372 221.737938    276.200    8.64612   86.06311 3.1926e+02     7.5344    15.2042     0.4940     0.0473  0.000e+00
      2.015    15.1373 221.617287    276.049    8.55587   85.16485 2.7309e+02     7.5340    15.2059     0.5141     0.0483  0.000e+00
      2.098    15.1343 221.617291    276.070    8.47931   84.39740 2.2871e+02     7.5193    15.2618     0.5262     0.0493  0.000e+00
      2.165    15.1300 221.677621    276.175    8.42381   83.83713 1.9385e+02     7.5141    15.2815     0.5190     0.0497  0.000e+00
      2.218    15.1267 221.617299    276.122    8.39589   83.55341 1.7228e+02     7.5055    15.3144     0.5045     0.0494  0.000e+00
      2.257    15.1250 221.768117    276.321    8.38426   83.43470 1.6338e+02     7.5270    15.2322     0.4918     0.0480  0.000e+00
      2.275    15.1225 221.858609    276.452    8.38074   83.39523 1.6736e+02     7.5344    15.2042     0.5011     0.0480  0.000e+00
      2.292    15.1223 221.888773    276.490    8.37856   83.37319 1.7362e+02     7.5158    15.2749     0.5032     0.0480  0.000e+00
      2.325    15.1284 221.858606    276.411    8.35815   83.18091 1.7519e+02     7.5003    15.3342     0.4994     0.0481  0.000e+00
      2.368    15.1355 221.888765    276.400    8.33873   83.00030 1.7338e+02     7.5361    15.1976     0.4981     0.0478  0.000e+00
      2.407    15.1395 221.858600    276.335    8.30673   82.68894 1.6338e+02     7.5270    15.2322     0.5040     0.0473  0.000e+00
      2.451    15.1416 221.828436    276.283    8.28545   82.48077 1.4924e+02     7.5150    15.2782     0.4978     0.0469  0.000e+00
      2.499    15.1426 221.798272    276.238    8.28054   82.43369 1.3173e+02     7.5038    15.3210     0.5001     0.0474  0.000e+00
      2.531    15.1423 221.888764    276.353    8.28543   82.48193 1.1823e+02     7.4913    15.3687     0.4955     0.0479  0.000e+00
      2.557    15.1428 221.918927    276.387    8.29872   82.61510 1.0786e+02     7.5107    15.2947     0.5079     0.0496  0.000e+00
      2.591    15.1435 221.828437    276.269    8.31858   82.81409 9.9531e+01     7.5089    15.3013     0.5054     0.0491  0.000e+00
      2.626    15.1432 221.858601    276.309    8.33414   82.96845 9.5686e+01     7.5072    15.3078     0.4996     0.0488  0.000e+00
      2.658    15.1419 221.768113    276.206    8.32290   82.85406 9.6633e+01     7.5102    15.2963     0.5105     0.0500  0.000e+00
      2.703    15.1402 221.677625    276.104    8.30581   82.68100 9.7487e+01     7.5184    15.2651     0.5231     0.0502  0.000e+00
      2.766    15.1347 221.617304    276.067    8.26455   82.26063 9.3936e+01     7.5124    15.2881     0.5402     0.0497  0.000e+00
      2.829    15.1246 221.556987    276.061    8.21792   81.77857 9.0196e+01     7.4948    15.3555     0.5469     0.0500  0.000e+00
      2.903    15.1161 221.436342    275.969    8.18190   81.40524 8.3568e+01     7.4798    15.4131     0.5463     0.0488  0.000e+00
      2.989    15.1094 221.315698    275.865    8.14600   81.03632 7.0374e+01     7.4982    15.3424     0.5398     0.0497  0.000e+00
      3.065    15.1036 221.315704    275.905    8.13560   80.92269 5.8473e+01     7.4836    15.3983     0.5439     0.0503  0.000e+00
      3.121    15.0991 221.376034    276.011    8.16996   81.25665 5.0527e+01     7.4789    15.4164     0.5325     0.0497  0.000e+00
      3.159    15.0958 221.557014    276.259    8.26160   82.16243 4.5439e+01     7.4700    15.4510     0.5255     0.0507  0.000e+00
      3.179    15.0931 221.677669    276.429    8.40891   83.62244 4.3921e+01     7.4772    15.4230     0.5155     0.0494  0.000e+00
      3.178    15.0911 221.798324    276.593    8.59631   85.48256 4.5913e+01     7.4738    15.4362     0.5102     0.0495  0.000e+00
      3.157    15.0940 221.828485    276.610    8.77503   87.26522 5.0937e+01     7.4696    15.4526     0.5108     0.0493  0.000e+00
      3.141    15.1090 221.737983    276.394    8.92565   88.79168 5.5310e+01     7.4845    15.3950     0.4947     0.0488  0.000e+00
      3.138    15.1240 221.677646    276.216    9.03265   89.88509 5.7574e+01     7.4845    15.3950     0.4926     0.0490  0.000e+00
      3.155    15.1292 221.556990    276.030    9.11003   90.66510 5.6163e+01     7.4555    15.5069     0.4961     0.0500  0.000e+00
      3.211    15.1269 221.406178    275.857    9.15446   91.10287 5.2985e+01     7.4547    15.5102     0.5051     0.0491  0.000e+00
      3.307    15.1187 221.315698    275.801    9.18052   91.34603 4.3983e+01     7.4721    15.4427     0.5232     0.0498  0.000e+00
      3.416    15.1072 221.255383    275.805    9.17886   91.30689 3.5311e+01     7.4551    15.5085     0.5481     0.0501  0.000e+00
      3.527    15.0887 221.164911    275.819    9.14468   90.93072 2.8516e+01     7.4488    15.5332     0.5735     0.0498  0.000e+00
      3.625    15.0416 220.983973    275.918    9.13702   90.76230 2.3945e+01     7.4070    15.6961     0.6004     0.0501  0.000e+00
      3.695    14.9890 220.923688    276.205    9.19637   91.24833 2.1613e+01     7.3339    15.9856     0.5843     0.0494  0.000e+00
      3.734    14.9564 221.315823    276.921    9.28949   92.10769 2.1037e+01     7.2918    16.1550     0.5739     0.0466  0.000e+00
      3.740    14.9353 221.496816    277.295    9.40457   93.20614 2.1970e+01     7.2767    16.2159     0.5502     0.0475  0.000e+00
      3.732    14.9176 221.587317    277.531    9.50334   94.14915 2.3262e+01     7.2873    16.1731     0.5315     0.0482  0.000e+00
      3.718    14.9296 221.557146    277.410    9.55463   94.68168 2.4862e+01     7.3282    16.0086     0.5366     0.0477  0.000e+00
      3.706    14.9521 221.466640    277.140    9.56431   94.82377 2.6365e+01     7.3533    15.9083     0.5830     0.0454  0.000e+00
      3.718    14.9734 221.104673    276.540    9.52261   94.45354 2.5941e+01     7.3352    15.9806     0.6139     0.0462  0.000e+00
      3.765    14.9858 220.803043    276.077    9.44371   93.69592 2.4980e+01     7.2605    16.2817     0.6312     0.0459  0.000e+00
      3.831    14.9705 220.199825    275.428    9.34688   92.70445 2.1885e+01     7.1908    16.5679     0.6078     0.0467  0.000e+00
      3.908    14.9008 219.445863    274.965    9.26017   91.70602 1.8247e+01     7.1289    16.8262     0.5927     0.0463  0.000e+00
      3.992    14.8083 218.752262    274.733    9.18403   90.77005 1.4636e+01     7.0780    17.0417     0.5711     0.0462  0.000e+00
      4.064    14.7217 218.511055    275.028    9.11554   89.92445 1.2348e+01     7.0599    17.1190     0.5622     0.0460  0.000e+00
      4.112    14.6520 218.812694    275.892    9.04131   89.05761 1.1413e+01     7.0335    17.2325     0.5463     0.0459  0.000e+00
      4.138    14.6138 219.928639    277.566    8.98243   88.40461 1.1586e+01     7.0182    17.2983     0.5475     0.0449  0.000e+00
      4.146    14.5841 220.260431    278.193    8.92122   87.74578 1.2506e+01     7.0213    17.2851     0.5829     0.0451  0.000e+00
      4.150    14.5608 220.441415    278.586    8.86561   87.15464 1.3593e+01     7.0110    17.3295     0.6195     0.0447  0.000e+00
      4.158    14.5813 220.320755    278.290    8.80248   86.57262 1.4321e+01     6.9661    17.5253     0.6587     0.0444  0.000e+00
      4.193    14.6054 219.204801    276.712    8.75381   86.13860 1.3765e+01     6.8847    17.8856     0.6330     0.0436  0.000e+00
      4.264    14.6132 218.330185    275.553    8.73586   85.97629 1.1965e+01     6.8158    18.1965     0.6173     0.0444  0.000e+00
      4.350    14.5788 217.576265    274.840    8.74927   86.04370 1.0945e+01     6.7573    18.4646     0.6100     0.0450  0.000e+00
      4.439    14.5128 216.852550    274.384    8.79674   86.38634 8.8927e+00     6.6964    18.7475     0.6025     0.0457  0.000e+00
      4.514    14.4494 217.154161    275.207    8.84091   86.70062 7.3410e+00     6.6476    18.9778     0.6081     0.0446  0.000e+00
      4.561    14.4060 217.636706    276.122    8.88475   87.04830 6.6232e+00     6.5925    19.2410     0.5752     0.0431  0.000e+00
      4.599    14.3746 218.209728    277.070    8.92528   87.38582 6.2997e+00     6.5581    19.4072     0.5643     0.0430  0.000e+00
      4.616    14.3514 219.054193    278.307    8.97891   87.86659 6.3856e+00     6.5500    19.4467     0.5584     0.0426  0.000e+00
      4.608    14.3374 219.566920    279.057    9.03681   88.40639 6.9088e+00     6.5717    19.3414     0.5435     0.0413  0.000e+00
      4.599    14.3758 219.476412    278.670    9.08786   88.98041 7.3908e+00     6.5754    19.3233     0.5428     0.0424  0.000e+00
      4.600    14.4518 218.963643    277.483    9.11286   89.37273 7.5342e+00     6.5571    19.4121     0.5590     0.0423  0.000e+00
      4.609    14.4957 218.541385    276.641    9.14047   89.72892 7.4635e+00     6.5439    19.4763     0.5587     0.0434  0.000e+00
      4.642    14.5067 217.847739    275.686    9.16856   90.02598 6.9680e+00     6.5297    19.5454     0.5660     0.0436  0.000e+00
      4.700    14.4860 217.154139    274.952    9.19722   90.26659 6.1039e+00     6.4839    19.7707     0.6158     0.0431  0.000e+00
      4.774    14.4365 216.551050    274.532    9.22354   90.42732 5.6905e+00     6.4722    19.8283     0.6151     0.0433  0.000e+00
      4.864    14.3833 215.797207    273.947    9.22519   90.33844 4.8585e+00     6.4972    19.7049     0.6092     0.0427  0.000e+00
      4.967    14.3376 215.495696    273.882    9.19785   89.98085 4.0549e+00     6.5136    19.6243     0.5772     0.0419  0.000e+00
      5.057    14.3004 215.375107    273.988    9.15579   89.49665 3.5511e+00     6.4899    19.7411     0.5509     0.0432  0.000e+00
      5.127    14.2742 215.676671    274.554    9.13034   89.19702 3.3049e+00     6.4835    19.7724     0.5434     0.0434  0.000e+00
      5.170    14.2590 216.913057    276.235    9.15077   89.36744 3.2652e+00     6.4819    19.7806     0.5214     0.0433  0.000e+00
      5.179    14.2525 217.697142    277.279    9.20132   89.84866 3.4339e+00     6.4567    19.9056     0.5086     0.0442  0.000e+00
      5.158    14.2537 218.209825    277.924    9.28031   90.62240 3.6662e+00     6.4945    19.7181     0.5052     0.0431  0.000e+00
      5.133    14.2889 217.968535    277.368    9.34321   91.30683 3.8253e+00     6.4915    19.7329     0.5247     0.0435  0.000e+00
      5.120    14.3613 217.335177    276.053    9.37943   91.80524 3.7761e+00     6.4759    19.8102     0.5203     0.0435  0.000e+00
      5.124    14.4066 216.762170    275.008    9.40291   92.12596 3.5988e+00     6.4752    19.8135     0.5453     0.0434  0.000e+00
      5.154    14.4080 216.279677    274.387    9.41947   92.29071 3.3014e+00     6.4736    19.8217     0.5666     0.0424  0.000e+00
      5.222    14.3741 215.405213    273.513    9.41699   92.19798 3.1102e+00     6.4557    19.9106     0.5782     0.0422  0.000e+00
      5.308    14.3220 214.983097    273.339    9.38745   91.80427 2.7375e+00     6.4346    20.0158     0.5592     0.0424  0.000e+00
      5.397    14.2774 214.892670    273.534    9.33569   91.20931 2.5008e+00     6.4071    20.1540     0.5461     0.0431  0.000e+00
      5.493    14.2448 214.681621    273.492    9.26832   90.48657 2.2552e+00     6.3820    20.2807     0.5290     0.0430  0.000e+00
      5.573    14.2208 214.892713    273.928    9.19414   89.71545 2.0551e+00     6.3484    20.4518     0.5348     0.0421  0.000e+00
      5.619    14.2071 215.797346    275.178    9.12244   88.98940 1.9613e+00     6.3279    20.5570     0.5731     0.0412  0.000e+00
      5.649    14.2003 215.857661    275.303    9.07654   88.52847 1.8579e+00     6.3240    20.5768     0.5441     0.0415  0.000e+00
      5.674    14.1921 216.159218    275.745    9.06558   88.40578 1.7528e+00     6.3240    20.5768     0.5199     0.0413  0.000e+00
      5.681    14.1866 216.611556    276.360    9.10287   88.75903 1.7226e+00     6.2938    20.7330     0.5068     0.0408  0.000e+00
      5.693    14.1827 216.189380    275.850    9.14156   89.12845 1.6540e+00     6.2808    20.8005     0.5087     0.0413  0.000e+00
      5.720    14.1805 215.676748    275.211    9.18408   89.53845 1.5687e+00     6.2521    20.9502     0.5395     0.0413  0.000e+00
      5.745    14.1791 215.556132    275.067    9.20263   89.71667 1.5300e+00     6.2286    21.0736     0.5624     0.0411  0.000e+00
      5.770    14.1804 215.435514    274.904    9.20313   89.72394 1.5311e+00     6.2493    20.9650     0.5798     0.0397  0.000e+00
      5.790    14.1828 215.706903    275.233    9.17963   89.49976 1.5237e+00     6.2392    21.0176     0.5756     0.0397  0.000e+00
      5.813    14.1845 215.676747    275.183    9.11281   88.85141 1.5249e+00     6.2612    20.9025     0.5840     0.0390  0.000e+00
      5.846    14.1846 215.465667    274.913    9.01637   87.91129 1.5226e+00     6.2593    20.9124     0.5597     0.0391  0.000e+00
      5.888    14.1821 215.314899    274.738    8.90939   86.86353 1.4413e+00     6.2782    20.8137     0.5284     0.0390  0.000e+00
      5.955    14.1766 214.832444    274.161    8.78820   85.67140 1.3186e+00     6.2559    20.9304     0.5067     0.0407  0.000e+00
      6.049    14.1698 214.380156    273.631    8.66865   84.49330 1.1253e+00     6.2486    20.9683     0.4974     0.0417  0.000e+00
      6.151    14.1633 214.259552    273.523    8.56578   83.47868 9.4087e-01     6.2685    20.8646     0.4971     0.0414  0.000e+00
      6.236    14.1599 214.319861    273.624    8.48823   82.71671 8.0888e-01     6.2559    20.9304     0.4929     0.0394  0.000e+00
      6.309    14.1561 214.350018    273.688    8.43553   82.19643 7.1094e-01     6.2295    21.0686     0.4884     0.0395  0.000e+00
      6.348    14.1520 215.164159    274.757    8.41521   81.99131 6.7219e-01     6.2211    21.1130     0.4907     0.0406  0.000e+00
      6.352    14.1502 215.767246    275.539    8.41193   81.95634 6.7178e-01     6.2442    20.9913     0.4884     0.0403  0.000e+00
      6.339    14.1546 215.978327    275.778    8.42391   82.08093 6.8891e-01     6.2474    20.9749     0.4899     0.0404  0.000e+00
      6.317    14.1837 216.038616    275.650    8.45362   82.42295 7.4146e-01     6.2483    20.9699     0.5109     0.0403  0.000e+00
      6.297    14.2335 215.857651    275.069    8.46050   82.57987 7.9785e-01     6.2374    21.0275     0.5151     0.0406  0.000e+00
      6.290    14.2642 215.435466    274.317    8.49480   82.97019 8.4001e-01     6.2336    21.0472     0.5095     0.0403  0.000e+00
      6.315    14.2702 214.832386    273.507    8.54457   83.46703 8.2762e-01     6.2324    21.0538     0.4995     0.0391  0.000e+00
      6.366    14.2544 214.500714    273.195    8.62505   84.22397 7.8681e-01     6.2202    21.1180     0.5096     0.0391  0.000e+00
      6.444    14.2227 214.078602    272.877    8.72998   85.18945 7.0083e-01     6.2267    21.0834     0.5364     0.0393  0.000e+00
      6.544    14.1933 213.927863    272.890    8.82362   86.04789 5.9704e-01     6.2242    21.0966     0.5623     0.0398  0.000e+00
      6.644    14.1690 213.897730    273.021    8.88999   86.64897 4.9739e-01     6.2499    20.9617     0.5654     0.0396  0.000e+00
      6.737    14.1500 213.807290    273.038    8.92404   86.94460 4.2037e-01     6.2493    20.9650     0.5438     0.0391  0.000e+00
      6.817    14.1368 213.927908    273.285    8.98066   87.47104 3.4560e-01     6.2224    21.1065     0.5138     0.0393  0.000e+00
      6.875    14.1288 214.199285    273.687    9.05533   88.18301 2.9938e-01     6.1947    21.2529     0.5064     0.0394  0.000e+00
      6.919    14.1252 214.410357    273.981    9.15078   89.10568 2.8475e-01     6.1293    21.6033     0.5059     0.0397  0.000e+00
      6.945    14.1216 214.862656    274.585    9.24575   90.02341 2.6502e-01     6.1205    21.6510     0.5068     0.0394  0.000e+00
      6.939    14.1186 215.134041    274.953    9.32497   90.78896 2.6862e-01     6.1409    21.5407     0.5123     0.0380  0.000e+00
      6.909    14.1331 215.224491    274.967    9.37189   91.27475 3.0090e-01     6.1485    21.4996     0.5135     0.0376  0.000e+00
      6.867    14.1751 215.194307    274.633    9.38215   91.45869 3.5158e-01     6.1768    21.3483     0.5074     0.0378  0.000e+00
      6.822    14.2075 215.103822    274.291    9.34466   91.15758 4.1373e-01     6.1876    21.2907     0.5012     0.0375  0.000e+00
      6.797    14.2245 214.711815    273.672    9.28132   90.57333 4.4799e-01     6.1836    21.3121     0.4974     0.0386  0.000e+00
      6.820    14.2262 214.319826    273.161    9.20663   89.84766 4.3492e-01     6.1691    21.3894     0.5338     0.0400  0.000e+00
      6.900    14.2080 213.716797    272.519    9.12942   89.05841 3.6798e-01     6.1531    21.4749     0.5673     0.0406  0.000e+00
      7.031    14.1762 213.505761    272.470    9.05649   88.28565 2.8468e-01     6.1685    21.3927     0.5865     0.0405  0.000e+00
      7.194    14.1445 213.355029    272.498    9.00137   87.68747 2.0488e-01     6.2028    21.2101     0.5666     0.0403  0.000e+00
      7.349    14.1196 213.324899    272.634    9.01490   87.77126 1.4320e-01     6.2115    21.1640     0.5434     0.0411  0.000e+00
      7.475    14.1032 213.385215    272.825    9.11374   88.70185 1.1076e-01     6.2336    21.0472     0.5245     0.0414  0.000e+00
      7.562    14.0937 213.475677    273.007    9.26576   90.16260 9.3708e-02     6.1935    21.2594     0.5028     0.0411  0.000e+00
      7.598    14.0895 213.927957    273.615    9.43148   91.76684 6.6634e-02     6.1596    21.4404     0.4820     0.0411  0.000e+00
      7.592    14.0863 214.078720    273.830    9.58234   93.22833 8.2047e-02     6.1768    21.3483     0.4774     0.0417  0.000e+00
      7.554    14.0879 214.078718    273.819    9.67999   94.18171 9.5593e-02     6.1929    21.2627     0.4978     0.0410  0.000e+00
      7.495    14.1047 214.139010    273.778    9.71331   94.54074 1.0868e-01     6.1827    21.3170     0.5060     0.0400  0.000e+00
      7.419    14.1249 214.138994    273.637    9.67976   94.25577 1.3781e-01     6.1611    21.4322     0.5181     0.0393  0.000e+00
      7.364    14.1390 213.927918    273.269    9.59801   93.48854 1.5870e-01     6.1611    21.4322     0.5251     0.0386  0.000e+00
      7.341    14.1452 213.807305    273.071    9.48361   92.38687 1.6435e-01     6.1953    21.2496     0.5235     0.0393  0.000e+00
      7.365    14.1375 213.294735    272.470    9.36178   91.18436 1.4179e-01     6.1590    21.4437     0.5109     0.0391  0.000e+00
      7.445    14.1223 213.204294    272.461    9.23395   89.90929 1.1695e-01     6.1657    21.4075     0.5080     0.0407  0.000e+00
      7.561    14.1073 213.144005    272.488    9.10755   88.64943 1.0808e-01     6.1669    21.4009     0.5229     0.0407  0.000e+00
      7.693    14.0937 213.083715    272.506    9.01964   87.76754 7.5331e-02     6.1676    21.3976     0.5525     0.0407  0.000e+00
      7.822    14.0826 213.053575    272.545    8.99629   87.51914 4.9852e-02     6.1663    21.4042     0.5357     0.0422  0.000e+00
      7.935    14.0753 213.144035    272.711    9.05316   88.05835 2.4780e-02     6.1762    21.3516     0.5441     0.0408  0.000e+00
      8.015    14.0712 213.294794    272.933    9.17166   89.20292 1.2663e-02     6.1299    21.6000     0.5493     0.0401  0.000e+00
      8.064    14.0706 213.747068    273.516    9.30464   90.49535 4.1092e-03     6.0872    21.8319     0.5322     0.0406  0.000e+00
      8.090    14.0700 213.716917    273.481    9.44085   91.81897 1.0000e-12     6.0649    21.9536     0.5283     0.0397  0.000e+00
      8.094    14.0764 213.807368    273.553    9.53925   92.78882 1.0000e-12     6.0638    21.9602     0.5223     0.0386  0.000e+00
      8.082    14.0911 213.867661    273.527    9.58207   93.23542 1.0000e-12     6.0839    21.8500     0.4973     0.0376  0.000e+00
      8.069    14.1117 213.777191    273.267    9.55636   93.02719 1.0000e-12     6.0755    21.8961     0.4945     0.0388  0.000e+00
      8.064    14.1249 213.807334    273.213    9.46046   92.12022 1.0000e-12     6.0712    21.9191     0.4957     0.0381  0.000e+00
      8.059    14.1295 213.716875    273.065    9.32821   90.84169 1.4027e-03     6.0712    21.9191     0.5168     0.0381  0.000e+00
      8.072    14.1295 213.566117    272.873    9.19257   89.52071 1.0000e-12     6.0700    21.9257     0.5156     0.0386  0.000e+00
      8.105    14.1228 213.475668    272.804    9.07130   88.32670 1.0000e-12     6.0602    21.9800     0.5500     0.0386  0.000e+00
      8.149    14.1097 213.445527    272.857    8.96592   87.27553 1.0000e-12     6.0419    22.0803     0.5087     0.0391  0.000e+00
      8.205    14.0993 213.264627    272.698    8.89202   86.53654 1.0000e-12     6.0464    22.0556     0.4960     0.0391  0.000e+00
      8.277    14.0897 213.144032    272.611    8.82523   85.86845 1.0000e-12     6.0306    22.1428     0.4965     0.0406  0.000e+00
      8.340    14.0810 213.264643    272.826    8.75389   85.15817 1.0000e-12     6.0277    22.1593     0.4998     0.0408  0.000e+00
      8.405    14.0776 213.204344    272.772    8.70138   84.64097 1.0000e-12     6.0351    22.1181     0.5139     0.0404  0.000e+00
      8.491    14.0723 212.993294    272.540    8.66322   84.25987 1.0000e-12     6.0306    22.1428     0.5212     0.0391  0.000e+00
      8.577    14.0644 213.023452    272.633    8.64670   84.08475 1.0000e-12     6.0102    22.2563     0.5369     0.0393  0.000e+00
      8.657    14.0594 212.993306    272.630    8.66000   84.20470 1.0000e-12     5.9984    22.3221     0.5627     0.0406  0.000e+00
      8.736    14.0565 212.902858    272.534    8.69829   84.57168 1.0000e-12     5.9851    22.3961     0.5644     0.0404  0.000e+00
      8.792    14.0537 213.204369    272.939    8.74649   85.03519 1.0000e-12     5.9825    22.4109     0.5330     0.0400  0.000e+00
      8.815    14.0546 213.566184    273.396    8.79200   85.47944 1.0000e-12     5.9544    22.5689     0.5003     0.0401  0.000e+00
      8.813    14.0544 213.686791    273.553    8.83469   85.89408 1.0000e-12     6.0004    22.3106     0.4772     0.0386  0.000e+00
      8.789    14.0640 213.626480    273.408    8.86592   86.21595 1.0000e-12     6.0049    22.2859     0.4835     0.0391  0.000e+00
      8.748    14.0886 213.626462    273.236    8.87508   86.35148 1.0000e-12     5.9937    22.3484     0.4931     0.0405  0.000e+00
      8.710    14.1144 213.566140    272.979    8.88931   86.53874 1.0000e-12     5.9875    22.3830     0.4945     0.0398  0.000e+00
      8.696    14.1319 213.445522    272.702    8.88998   86.57848 1.0000e-12     5.9828    22.4093     0.5323     0.0409  0.000e+00
      8.718    14.1396 213.294761    272.456    8.89738   86.66495 1.0000e-12     5.9990    22.3188     0.5492     0.0401  0.000e+00
      8.781    14.1287 213.023411    272.185    8.90757   86.74362 1.0000e-12     5.9960    22.3353     0.5351     0.0405  0.000e+00
      8.883    14.1050 212.782225    272.041    8.91960   86.81562 1.0000e-12     5.9910    22.3632     0.5122     0.0397  0.000e+00
      9.005    14.0815 212.631492    272.012    8.90847   86.66264 1.0000e-12     5.9951    22.3402     0.4912     0.0392  0.000e+00
      9.124    14.0630 212.721958    272.257    8.89794   86.52497 1.0000e-12     5.9787    22.4323     0.5148     0.0388  0.000e+00
      9.229    14.0503 212.691819    272.307    8.92597   86.77347 1.0000e-12     5.9889    22.3748     0.5364     0.0394  0.000e+00
      9.306    14.0422 212.721976    272.402    8.99392   87.41849 1.0000e-12     5.9611    22.5310     0.5541     0.0397  0.000e+00
      9.355    14.0382 212.902883    272.662    9.09917   88.43374 1.0000e-12     5.9416    22.6412     0.5321     0.0399  0.000e+00
      9.377    14.0370 213.204392    273.056    9.21405   89.54808 1.0000e-12     5.9471    22.6100     0.5315     0.0400  0.000e+00
      9.380    14.0355 213.264695    273.144    9.32621   90.63524 1.0000e-12     5.9582    22.5475     0.5327     0.0413  0.000e+00
      9.378    14.0368 213.264694    273.135    9.41193   91.47075 1.0000e-12     5.9599    22.5376     0.5185     0.0424  0.000e+00
      9.377    14.0446 213.204387    273.003    9.43801   91.74002 1.0000e-12     5.9629    22.5212     0.4887     0.0414  0.000e+00
      9.376    14.0475 213.264687    273.060    9.40895   91.46328 1.0000e-12     5.9524    22.5804     0.4728     0.0407  0.000e+00
      9.375    14.0481 213.204384    272.979    9.33014   90.69840 1.0000e-12     5.9579    22.5491     0.4731     0.0405  0.000e+00
      9.376    14.0489 213.144082    272.896    9.19347   89.37134 1.1938e-05     5.9596    22.5393     0.4867     0.0401  0.000e+00
      9.386    14.0476 213.023480    272.750    9.04287   87.90491 1.0000e-12     5.9489    22.6001     0.4799     0.0394  0.000e+00
      9.416    14.0439 212.902880    272.622    8.88996   86.41127 1.0000e-12     5.9538    22.5722     0.4993     0.0398  0.000e+00
      9.475    14.0390 212.721982    272.424    8.75891   85.12837 1.0000e-12     5.9763    22.4455     0.5063     0.0414  0.000e+00
      9.565    14.0354 212.631536    272.334    8.64249   83.99013 1.0000e-12     5.9681    22.4916     0.5130     0.0413  0.000e+00
      9.671    14.0334 212.631539    272.348    8.54878   83.07589 1.0000e-12     5.9547    22.5672     0.5252     0.0416  0.000e+00
      9.777    14.0316 212.571242    272.283    8.46413   82.24995 1.0000e-12     5.9547    22.5672     0.5180     0.0413  0.000e+00
      9.866    14.0287 212.571246    272.303    8.40278   81.64864 1.0000e-12     5.9547    22.5672     0.5127     0.0402  0.000e+00
      9.931    14.0268 212.691849    272.471    8.37667   81.39146 1.0000e-12     5.9369    22.6676     0.5062     0.0398  0.000e+00
      9.970    14.0263 212.933054    272.784    8.42656   81.87544 1.0000e-12     5.9518    22.5837     0.4813     0.0391  0.000e+00
      9.994    14.0264 213.144110    273.054    8.54057   82.98338 1.0000e-12     5.9442    22.6264     0.4680     0.0391  0.000e+00
     10.012    14.0251 213.144111    273.062    8.67956   84.33152 1.0000e-12     5.9198    22.7646     0.4745     0.0407  0.000e+00
     10.023    14.0240 213.204414    273.148    8.81859   85.68028 1.0000e-12     5.9387    22.6577     0.5187     0.0414  0.000e+00
     10.042    14.0266 213.113960    273.014    8.93249   86.79179 1.0000e-12     5.9335    22.6873     0.5207     0.0399  0.000e+00
     10.057    14.0289 213.023506    272.881    9.00437   87.49471 1.0000e-12     5.9164    22.7844     0.5124     0.0394  0.000e+00
     10.058    14.0307 213.204410    273.100    9.01951   87.64528 1.0000e-12     5.9138    22.7992     0.4906     0.0391  0.000e+00
     10.054    14.0322 213.083805    272.936    8.98195   87.28304 1.0000e-12     5.9323    22.6939     0.5237     0.0382  0.000e+00
     10.048    14.0322 213.144107    273.012    8.90083   86.49492 1.0000e-12     5.9219    22.7531     0.5222     0.0398  0.000e+00
     10.052    14.0320 212.902901    272.705    8.78624   85.38092 1.0000e-12     5.9155    22.7893     0.5013     0.0404  0.000e+00
     10.103    14.0306 212.571249    272.290    8.66490   84.19911 1.0000e-12     5.9297    22.7087     0.5024     0.0400  0.000e+00
     10.188    14.0275 212.510953    272.235    8.54817   83.05902 1.0000e-12     5.9025    22.8633     0.5008     0.0397  0.000e+00
     10.308    14.0252 212.480807    272.212    8.45415   82.14131 1.0000e-12     5.9002    22.8765     0.4781     0.0391  0.000e+00
     10.439    14.0227 212.390362    272.113    8.38941   81.50790 1.0000e-12     5.9387    22.6577     0.4601     0.0394  0.000e+00
     10.551    14.0184 212.390367    272.144    8.35309   81.14735 1.0000e-12     5.9291    22.7120     0.4505     0.0397  0.000e+00
     10.635    14.0144 212.480821    272.287    8.39044   81.50302 1.0000e-12     5.9149    22.7926     0.4524     0.0397  0.000e+00
     10.690    14.0116 212.752176    272.655    8.50823   82.64228 1.0000e-12     5.8893    22.9390     0.4559     0.0396  0.000e+00
     10.712    14.0105 212.933080    272.894    8.67776   84.28706 1.0000e-12     5.8730    23.0328     0.4659     0.0404  0.000e+00
     10.713    14.0103 212.963230    272.934    8.87459   86.19851 1.0000e-12     5.8842    22.9686     0.4461     0.0395  0.000e+00
     10.701    14.0149 213.053679    273.018    9.04007   87.81457 1.0000e-12     5.8885    22.9439     0.4420     0.0382  0.000e+00
     10.682    14.0241 213.083823    272.992    9.16710   89.06661 1.0000e-12     5.8693    23.0541     0.4665     0.0395  0.000e+00
     10.657    14.0357 213.113966    272.950    9.22900   89.69068 1.0000e-12     5.8491    23.1709     0.4698     0.0400  0.000e+00
     10.630    14.0436 213.023507    272.778    9.22966   89.71278 1.0000e-12     5.8770    23.0097     0.4614     0.0398  0.000e+00
     10.608    14.0471 212.933052    272.638    9.18000   89.23690 1.0000e-12     5.8590    23.1134     0.4822     0.0388  0.000e+00
     10.605    14.0462 212.752150    272.413    9.08764   88.33710 1.0000e-12     5.8673    23.0657     0.4997     0.0382  0.000e+00
     10.638    14.0408 212.571253    272.219    8.97156   87.19838 1.0000e-12     5.8673    23.0657     0.5375     0.0378  0.000e+00
     10.726    14.0319 212.390361    272.049    8.87061   86.20036 1.0000e-12     5.8968    22.8962     0.5451     0.0378  0.000e+00
     10.860    14.0229 212.330070    272.035    8.77941   85.29726 1.0000e-12     5.9201    22.7630     0.5156     0.0397  0.000e+00
     11.019    14.0145 212.330079    272.093    8.69129   84.42569 1.0000e-12     5.9492    22.5985     0.5068     0.0401  0.000e+00
     11.178    14.0074 212.360237    272.182    8.63513   83.86707 1.0000e-12     5.9640    22.5146     0.4918     0.0404  0.000e+00
     11.301    14.0020 212.330093    272.181    8.63883   83.89306 1.0000e-12     5.9670    22.4981     0.4705     0.0414  0.000e+00
     11.372    13.9986 212.691897    272.668    8.73231   84.79458 1.0000e-12     5.9043    22.8535     0.4572     0.0394  0.000e+00
     11.392    13.9967 212.752200    272.759    8.89235   86.34509 1.0000e-12     5.9028    22.8617     0.4511     0.0401  0.000e+00
     11.366    13.9971 212.752199    272.756    9.08001   88.16807 1.0000e-12     5.9037    22.8567     0.4528     0.0396  0.000e+00
     11.316    14.0099 212.722039    272.628    9.24998   89.84374 1.0000e-12     5.9095    22.8238     0.4411     0.0394  0.000e+00
     11.269    14.0282 212.752176    272.538    9.37043   91.05023 1.0000e-12     5.8799    22.9933     0.4371     0.0385  0.000e+00
     11.238    14.0394 212.631566    272.306    9.43800   91.72917 1.0000e-12     5.8804    22.9900     0.4372     0.0391  0.000e+00
     11.230    14.0413 212.571264    272.216    9.44878   91.83767 1.0000e-12     5.8845    22.9670     0.4495     0.0386  0.000e+00
     11.249    14.0341 212.510970    272.189    9.41248   91.47043 1.0000e-12     5.8722    23.0377     0.4833     0.0391  0.000e+00
     11.282    14.0242 212.450677    272.180    9.32871   90.63671 1.0000e-12     5.8873    22.9505     0.5190     0.0395  0.000e+00
     11.322    14.0155 212.480834    272.280    9.21783   89.54241 1.0000e-12     5.8756    23.0180     0.5203     0.0394  0.000e+00
     11.375    14.0090 212.450690    272.286    9.11224   88.50397 1.0000e-12     5.8994    22.8814     0.5010     0.0381  0.000e+00
     11.448    14.0036 212.360245    272.208    8.99977   87.40132 1.0000e-12     5.8933    22.9160     0.4910     0.0385  0.000e+00
     11.551    13.9991 212.269801    272.124    8.89112   86.33750 1.0000e-12     5.9164    22.7844     0.4646     0.0394  0.000e+00
     11.665    13.9949 212.360255    272.269    8.78263   85.27620 1.0000e-12     5.9637    22.5162     0.4475     0.0398  0.000e+00
     11.778    13.9899 212.390411    272.343    8.70849   84.54698 1.0000e-12     6.0226    22.1872     0.4492     0.0412  0.000e+00
     11.878    13.9848 212.420566    272.417    8.71172   84.56897 1.0000e-12     6.0500    22.0359     0.4381     0.0419  0.000e+00
     11.939    13.9815 212.571320    272.633    8.79020   85.32462 1.0000e-12     6.0455    22.0606     0.4197     0.0410  0.000e+00
     11.965    13.9806 212.691922    272.794    8.93081   86.68779 1.0000e-12     6.0623    21.9684     0.4186     0.0404  0.000e+00
     11.960    13.9796 212.752223    272.879    9.10011   88.32931 1.0000e-12     6.1044    21.7381     0.4131     0.0397  0.000e+00
     11.929    13.9858 212.691917    272.758    9.24892   89.78587 1.0000e-12     6.0872    21.8319     0.4096     0.0386  0.000e+00
     11.898    14.0013 212.691906    272.649    9.36282   90.92254 1.0000e-12     6.0247    22.1757     0.4308     0.0388  0.000e+00
     11.886    14.0146 212.631596    272.479    9.41655   91.47096 1.0000e-12     5.9760    22.4471     0.4364     0.0408  0.000e+00
     11.891    14.0201 212.691893    272.518    9.40242   91.34480 1.0000e-12     6.0125    22.2432     0.4656     0.0406  0.000e+00
     11.919    14.0175 212.571295    272.381    9.34205   90.75313 1.0000e-12     6.0164    22.2218     0.5044     0.0409  0.000e+00
     11.963    14.0088 212.511001    272.365    9.24468   89.79000 1.0000e-12     6.0697    21.9273     0.5676     0.0408  0.000e+00
     12.015    13.9991 212.511009    272.432    9.12404   88.59952 1.0000e-12     6.0773    21.8862     0.5455     0.0415  0.000e+00
     12.073    13.9916 212.480865    272.447    9.00511   87.43011 1.0000e-12     6.1035    21.7431     0.5200     0.0407  0.000e+00
     12.140    13.9857 212.511021    272.526    8.89722   86.37153 1.0000e-12     6.1135    21.6888     0.5001     0.0414  0.000e+00
     12.218    13.9809 212.480876    272.521    8.78384   85.26182 1.0000e-12     6.1385    21.5539     0.4745     0.0400  0.000e+00
     12.307    13.9766 212.511030    272.590    8.69194   84.36181 1.0000e-12     6.1537    21.4717     0.4680     0.0401  0.000e+00
     12.409    13.9731 212.480885    272.576    8.62628   83.71801 1.0000e-12     6.1768    21.3483     0.4569     0.0399  0.000e+00
     12.505    13.9703 212.511039    272.634    8.59565   83.41572 1.0000e-12     6.1870    21.2940     0.4640     0.0398  0.000e+00
     12.572    13.9687 212.511041    272.646    8.62398   83.68766 1.0000e-12     6.2164    21.1377     0.4908     0.0400  0.000e+00
     12.608    13.9683 212.691943    272.880    8.72058   84.62451 1.0000e-12     6.2336    21.0472     0.5039     0.0404  0.000e+00
     12.614    13.9685 212.722093    272.918    8.85956   85.97346 1.0000e-12     6.2449    20.9880     0.4975     0.0418  0.000e+00
     12.598    13.9681 212.752244    272.959    9.01386   87.46997 1.0000e-12     6.2464    20.9798     0.4814     0.0404  0.000e+00
     12.568    13.9753 212.722088    272.870    9.14405   88.74748 1.0000e-12     6.2314    21.0588     0.4607     0.0400  0.000e+00
     12.541    13.9886 212.752228    272.816    9.21776   89.48893 1.0000e-12     6.2177    21.1311     0.4910     0.0401  0.000e+00
     12.529    13.9965 212.722072    272.722    9.25108   89.82791 1.0000e-12     6.2311    21.0604     0.4752     0.0408  0.000e+00
     12.538    13.9975 212.631621    272.598    9.22969   89.62227 1.0000e-12     6.2283    21.0752     0.4539     0.0405  0.000e+00
     12.576    13.9930 212.511024    272.475    9.17414   89.07400 1.0000e-12     6.2609    20.9041     0.4505     0.0399  0.000e+00
     12.644    13.9854 212.480881    272.490    9.09539   88.29472 1.0000e-12     6.2817    20.7956     0.4777     0.0404  0.000e+00
     12.734    13.9786 212.511038    272.576    9.00762   87.42959 1.0000e-12     6.2944    20.7298     0.4679     0.0403  0.000e+00
     12.842    13.9722 212.420594    272.505    8.90925   86.46270 1.0000e-12     6.3384    20.5027     0.4494     0.0401  0.000e+00
     12.934    13.9668 212.450750    272.581    8.80962   85.48557 1.0000e-12     6.3746    20.3185     0.4336     0.0421  0.000e+00
     12.991    13.9628 212.480904    272.648    8.73341   84.73862 1.0000e-12     6.4116    20.1310     0.4435     0.2229  0.000e+00
     13.026    13.9600 212.450756    272.629    8.71109   84.51688 1.0000e-12     6.3983    20.1984     0.5227     0.2325  0.000e+00
     13.073    13.9579 212.480909    272.682    8.73089   84.70515 1.0000e-12     6.4005    20.1869     0.7630     0.1685  0.000e+00
     13.097    13.9563 212.511060    272.733    8.77784   85.15750 1.0000e-12     6.3924    20.2280     0.9362     0.1134  0.000e+00
