* Sea-Bird SBE19plus Data File:
* FileName = C:\Users\Steve Constant\Desktop\CHRP2017\CTD\raw\chp32017017.hex
* Software Version 1.59
* Temperature SN =  6337
* Conductivity SN =  6337
* System UpLoad Time = May 26 2017 12:27:24
* ds
* SBE 19plus V 2.5.2  SERIAL NO. 6337    26 May 2017 08:26:09
* vbatt = 12.1, vlith =  8.2, ioper =  61.3 ma, ipump =  48.3 ma,
* iext01 =   5.8 ma, iext2345 =  86.7 ma
* status = not logging
* number of scans to average = 1
* samples = 300534, free = 2560254, casts = 22
* mode = profile, minimum cond freq = 3154, pump delay = 40 sec
* autorun = no, ignore magnetic switch = no
* battery type = alkaline, battery cutoff =  7.5 volts
* pressure sensor = strain gauge, range = 160.0
* SBE 38 = no, WETLABS = no, OPTODE = no, SBE63 = no, Gas Tension Device = no
* Ext Volt 0 = yes, Ext Volt 1 = yes
* Ext Volt 2 = yes, Ext Volt 3 = yes
* Ext Volt 4 = yes, Ext Volt 5 = yes
* echo characters = yes
* output format = raw HEX

* S>
*
* SBE 19plus V 2.5.2  SERIAL NO. 6337    26 May 2017 08:26:47
* temperature:  13-Jan-17
*     TA0 = 1.295807e-03
*     TA1 = 2.588888e-04
*     TA2 = 9.706836e-08
*     TA3 = 1.382757e-07
*     TOFFSET = 0.000000e+00
* conductivity:  13-Jan-17
*     G = -1.015047e+00
*     H = 1.449340e-01
*     I = -4.359138e-04
*     J = 5.256769e-05
*     CPCOR = -9.570000e-08
*     CTCOR = 3.250000e-06
*     CSLOPE = 1.000000e+00
* pressure S/N = 2882551, range = 160 psia:  11-Jan-17
*     PA0 = -1.431544e-01
*     PA1 = 4.887645e-04
*     PA2 = -6.439018e-12
*     PTCA0 = 5.240819e+05
*     PTCA1 = -1.723854e+01
*     PTCA2 = 1.164354e-01
*     PTCB0 = 2.491288e+01
*     PTCB1 = -1.025000e-03
*     PTCB2 = 0.000000e+00
*     PTEMPA0 = -6.474687e+01
*     PTEMPA1 = 5.145625e+01
*     PTEMPA2 = -2.579592e-01
*     POFFSET = 0.000000e+00
* volt 0: offset = -4.766105e-02, slope = 1.249330e+00
* volt 1: offset = -4.904947e-02, slope = 1.248985e+00
* volt 2: offset = -4.772842e-02, slope = 1.248965e+00
* volt 3: offset = -4.803053e-02, slope = 1.249328e+00
* volt 4: offset = -4.743158e-02, slope = 1.248557e+00
* volt 5: offset = -4.724737e-02, slope = 1.251092e+00
*     EXTFREQSF = 9.999918e-01
* dh
* cast  17 23 May 2017 08:34:19 samples 292039 to 293239, avg = 1, stop = mag switch

* S>
# nquan = 12
# nvalues = 757                                   
# units = specified
# name 0 = depFM: Depth [fresh water, m]
# name 1 = tv290C: Temperature [ITS-90, deg C]
# name 2 = c0uS/cm: Conductivity [uS/cm]
# name 3 = specc: Specific Conductance [uS/cm]
# name 4 = sbeox0Mg/L: Oxygen, SBE 43 [mg/l]
# name 5 = sbeox0PS: Oxygen, SBE 43 [% saturation]
# name 6 = par: PAR/Irradiance, Biospherical/Licor
# name 7 = CStarAt0: Beam Attenuation, WET Labs C-Star [1/m]
# name 8 = CStarTr0: Beam Transmission, WET Labs C-Star [%]
# name 9 = chloroflTC0: Chlorophyll, Turner Cyclops [ug/l]
# name 10 = phycyflTC0: Phycocyanin, Turner Cyclops [RFU]
# name 11 = flag:  0.000e+00
# span 0 =     -0.255,     15.628                 
# span 1 =    13.8730,    22.6034                 
# span 2 =  36.404367, 266.759315                 
# span 3 =     38.235,    324.892                 
# span 4 =    6.92694,   10.10980                 
# span 5 =   68.16229,  100.02810                 
# span 6 = 2.5012e+00, 4.6665e+03                 
# span 7 =     0.1659,    18.2482                 
# span 8 =     1.0441,    95.9375                 
# span 9 =     0.0000,     2.8673                 
# span 10 =     0.0000,     2.1276                
# span 11 = 0.0000e+00, 0.0000e+00                
# interval = seconds: 0.25
# start_time = May 23 2017 08:34:19 [Instrument's time stamp, header]
# bad_flag = -9.990e-29
# <Sensors count="9" >
#   <sensor Channel="1" >
#     <!-- Count, Temperature -->
#     <TemperatureSensor SensorID="58" >
#       <SerialNumber>6337</SerialNumber>
#       <CalibrationDate>13-Jan-17</CalibrationDate>
#       <A0>1.29580686e-003</A0>
#       <A1>2.58888790e-004</A1>
#       <A2>9.70683569e-008</A2>
#       <A3>1.38275720e-007</A3>
#       <Slope>1.00000000</Slope>
#       <Offset>0.0000</Offset>
#     </TemperatureSensor>
#   </sensor>
#   <sensor Channel="2" >
#     <!-- Frequency 0, Conductivity -->
#     <ConductivitySensor SensorID="3" >
#       <SerialNumber>6337</SerialNumber>
#       <CalibrationDate>13-Jan-17</CalibrationDate>
#       <UseG_J>1</UseG_J>
#       <!-- Cell const and series R are applicable only for wide range sensors. -->
#       <SeriesR>0.0000</SeriesR>
#       <CellConst>2000.0000</CellConst>
#       <ConductivityType>0</ConductivityType>
#       <Coefficients equation="0" >
#         <A>0.00000000e+000</A>
#         <B>0.00000000e+000</B>
#         <C>0.00000000e+000</C>
#         <D>0.00000000e+000</D>
#         <M>0.0</M>
#         <CPcor>-9.57000000e-008</CPcor>
#       </Coefficients>
#       <Coefficients equation="1" >
#         <G>-1.01504657e+000</G>
#         <H>1.44933984e-001</H>
#         <I>-4.35913838e-004</I>
#         <J>5.25676850e-005</J>
#         <CPcor>-9.57000000e-008</CPcor>
#         <CTcor>3.2500e-006</CTcor>
#         <!-- WBOTC not applicable unless ConductivityType = 1. -->
#         <WBOTC>0.00000000e+000</WBOTC>
#       </Coefficients>
#       <Slope>1.00000000</Slope>
#       <Offset>0.00000</Offset>
#     </ConductivitySensor>
#   </sensor>
#   <sensor Channel="3" >
#     <!-- Count, Pressure, Strain Gauge -->
#     <PressureSensor SensorID="46" >
#       <SerialNumber>6337</SerialNumber>
#       <CalibrationDate>11-Jan-17</CalibrationDate>
#       <PA0>-1.43154376e-001</PA0>
#       <PA1>4.88764480e-004</PA1>
#       <PA2>-6.43901847e-012</PA2>
#       <PTEMPA0>-6.47468750e+001</PTEMPA0>
#       <PTEMPA1>5.14562526e+001</PTEMPA1>
#       <PTEMPA2>-2.57959185e-001</PTEMPA2>
#       <PTCA0>5.24081949e+005</PTCA0>
#       <PTCA1>-1.72385379e+001</PTCA1>
#       <PTCA2>1.16435406e-001</PTCA2>
#       <PTCB0>2.49128750e+001</PTCB0>
#       <PTCB1>-1.02500000e-003</PTCB1>
#       <PTCB2>0.00000000e+000</PTCB2>
#       <Offset>0.000000</Offset>
#     </PressureSensor>
#   </sensor>
#   <sensor Channel="4" >
#     <!-- A/D voltage 0, Oxygen, SBE 43 -->
#     <OxygenSensor SensorID="38" >
#       <SerialNumber>2361</SerialNumber>
#       <CalibrationDate>20-Jan-17</CalibrationDate>
#       <Use2007Equation>1</Use2007Equation>
#       <CalibrationCoefficients equation="0" >
#         <!-- Coefficients for Owens-Millard equation. -->
#         <Boc>0.0000</Boc>
#         <Soc>0.0000e+000</Soc>
#         <offset>0.0000</offset>
#         <Pcor>0.00e+000</Pcor>
#         <Tcor>0.0000</Tcor>
#         <Tau>0.0</Tau>
#       </CalibrationCoefficients>
#       <CalibrationCoefficients equation="1" >
#         <!-- Coefficients for Sea-Bird equation - SBE calibration in 2007 and later. -->
#         <Soc>3.9698e-001</Soc>
#         <offset>-0.4986</offset>
#         <A>-3.9823e-003</A>
#         <B> 2.4447e-004</B>
#         <C>-3.3613e-006</C>
#         <D0> 2.5826e+000</D0>
#         <D1> 1.92634e-004</D1>
#         <D2>-4.64803e-002</D2>
#         <E> 3.6000e-002</E>
#         <Tau20> 1.0800</Tau20>
#         <H1>-3.3000e-002</H1>
#         <H2> 5.0000e+003</H2>
#         <H3> 1.4500e+003</H3>
#       </CalibrationCoefficients>
#     </OxygenSensor>
#   </sensor>
#   <sensor Channel="5" >
#     <!-- A/D voltage 1, Free -->
#   </sensor>
#   <sensor Channel="6" >
#     <!-- A/D voltage 2, PAR/Irradiance, Biospherical/Licor -->
#     <PAR_BiosphericalLicorChelseaSensor SensorID="42" >
#       <SerialNumber>70234</SerialNumber>
#       <CalibrationDate>11/29/16</CalibrationDate>
#       <M>1.00000000</M>
#       <B>0.00000000</B>
#       <CalibrationConstant>10917030568.00000000</CalibrationConstant>
#       <Multiplier>1.00000000</Multiplier>
#       <Offset>-0.09353959</Offset>
#     </PAR_BiosphericalLicorChelseaSensor>
#   </sensor>
#   <sensor Channel="7" >
#     <!-- A/D voltage 3, Transmissometer, WET Labs C-Star -->
#     <WET_LabsCStar SensorID="71" >
#       <SerialNumber>CST-484PR</SerialNumber>
#       <CalibrationDate>12/23/16</CalibrationDate>
#       <M>21.5610</M>
#       <B>-1.2721</B>
#       <PathLength>0.250</PathLength>
#     </WET_LabsCStar>
#   </sensor>
#   <sensor Channel="8" >
#     <!-- A/D voltage 4, Fluorometer, Turner Cyclops -->
#     <Fluorometer SensorID="68" >
#       <SerialNumber></SerialNumber>
#       <CalibrationDate></CalibrationDate>
#       <ScaleFactor>1.00000000e+000</ScaleFactor>
#       <Offset>0.00000000e+000</Offset>
#       <!-- 1 = C, Chlorophyll -->
#       <!-- 2 = R, Rhodamine -->
#       <!-- 3 = F, Fluorescein -->
#       <!-- 4 = P, Phycocyanin -->
#       <!-- 5 = E, Phycoerythrin -->
#       <!-- 6 = U, CDOM -->
#       <!-- 7 = O, CrudeOil -->
#       <!-- 8 = B, OpticalBrightness -->
#       <!-- 9 = T, Turbidity -->
#       <!-- 10 = G, Refined Fuels -->
#       <MeasuredParameter>4</MeasuredParameter>
#     </Fluorometer>
#   </sensor>
#   <sensor Channel="9" >
#     <!-- A/D voltage 5, Fluorometer, Turner Cyclops, 2 -->
#     <Fluorometer SensorID="68" >
#       <SerialNumber></SerialNumber>
#       <CalibrationDate></CalibrationDate>
#       <ScaleFactor>1.00000000e+000</ScaleFactor>
#       <Offset>0.00000000e+000</Offset>
#       <!-- 1 = C, Chlorophyll -->
#       <!-- 2 = R, Rhodamine -->
#       <!-- 3 = F, Fluorescein -->
#       <!-- 4 = P, Phycocyanin -->
#       <!-- 5 = E, Phycoerythrin -->
#       <!-- 6 = U, CDOM -->
#       <!-- 7 = O, CrudeOil -->
#       <!-- 8 = B, OpticalBrightness -->
#       <!-- 9 = T, Turbidity -->
#       <!-- 10 = G, Refined Fuels -->
#       <MeasuredParameter>1</MeasuredParameter>
#     </Fluorometer>
#   </sensor>
# </Sensors>
# datcnv_date = May 26 2017 13:03:36, 7.21d [datcnv_vars = 11]
# datcnv_in = C:\Users\Steve Constant\Desktop\CHRP2017\CTD\raw\CHRP3.hex C:\Users\Steve Constant\Desktop\CHRP2017\CTD\raw\SBE19plusV2_63372017.xmlcon
# datcnv_skipover = 0
# datcnv_ox_hysteresis_correction = yes
# datcnv_ox_tau_correction = yes
# file_type = ascii
*END*
     -0.255    22.6028  37.958807     39.866    8.47310   98.04762 4.4785e+03     0.3038    92.6869     0.6085     0.1649  0.000e+00
     -0.254    22.6019  37.928913     39.835    8.47225   98.03609 4.4935e+03     0.1659    95.9375     0.3818     0.1643  0.000e+00
     -0.254    22.6004  37.839231     39.742    8.47429   98.05680 4.4785e+03     0.1946    95.2515     0.2642     0.1608  0.000e+00
     -0.254    22.5989  37.540293     39.430    8.47307   98.03989 4.4809e+03     0.2734    93.3943     0.1714     0.1621  0.000e+00
     -0.253    22.5975  37.181573     39.054    8.47253   98.03091 4.4691e+03     0.2971    92.8416     0.0892     0.1688  0.000e+00
     -0.254    22.5977  36.882644     38.740    8.47038   98.00629 4.5316e+03     0.2739    93.3811     0.0565     0.1727  0.000e+00
     -0.255    22.5986  36.613612     38.456    8.47378   98.04728 4.6665e+03     0.2526    93.8796     0.0916     0.1759  0.000e+00
     -0.255    22.5995  36.523936     38.361    8.47401   98.05169 4.6640e+03     0.2519    93.8977     0.0863     0.1804  0.000e+00
     -0.254    22.5996  36.494044     38.330    8.47498   98.06314 2.2485e+03     0.2617    93.6674     0.0515     0.1777  0.000e+00
     -0.255    22.5997  36.434260     38.267    8.47439   98.05640 1.9537e+03     0.2665    93.5555     0.0572     0.1836  0.000e+00
     -0.255    22.6003  36.404367     38.235    8.47424   98.05574 1.9428e+03     0.2653    93.5818     0.0000     0.1886  0.000e+00
     -0.254    22.6005  36.912537     38.769    8.47457   98.06002 1.8919e+03     0.2619    93.6624     0.0000     0.1842  0.000e+00
     -0.255    22.6009  36.972322     38.831    8.47417   98.05610 1.9772e+03     0.2613    93.6756     0.0000     0.1861  0.000e+00
     -0.255    22.6013  37.241359     39.114    8.47512   98.06806 2.0289e+03     0.2614    93.6739     0.0000     0.1894  0.000e+00
     -0.254    22.6025  37.689761     39.583    8.47167   98.03050 2.0472e+03     0.2525    93.8829     0.0000     0.1872  0.000e+00
     -0.254    22.6034  37.181572     39.049    8.47324   98.05011 2.0805e+03     0.2517    93.9010     0.0000     0.1859  0.000e+00
     -0.254    22.6023  36.972322     38.830    8.47123   98.02474 2.1174e+03     0.2610    93.6838     0.3764     0.1715  0.000e+00
     -0.254    22.5824  37.600082     39.506    8.47698   98.05430 2.4331e+03     0.2655    93.5769     1.1591     0.1177  0.000e+00
     -0.254    22.5331  38.765975     40.773    8.48147   98.01419 2.8076e+03     0.2644    93.6049     1.7984     0.0671  0.000e+00
     -0.254    22.4869  41.157754     43.331    8.49056   98.03328 2.9883e+03     0.2618    93.6641     2.2249     0.0000  0.000e+00
     -0.254    22.4670  41.217554     43.412    8.49343   98.02903 3.6741e+03     0.2616    93.6690     2.5186     0.0000  0.000e+00
     -0.254    22.4643  41.785644     44.013    8.49261   98.01472 4.3575e+03     0.2616    93.6690     2.7012     0.0468  0.000e+00
     -0.253    22.4613  41.725845     43.953    8.49589   98.04700 2.3685e+03     0.2629    93.6394     2.7792     0.1955  0.000e+00
     -0.253    22.4515  41.815545     44.056    8.49475   98.01541 2.7174e+03     0.2588    93.7348     2.8341     0.2222  0.000e+00
     -0.253    22.4369  42.174349     44.448    8.49719   98.01625 1.7213e+03     0.2448    94.0638     2.8641     0.1160  0.000e+00
     -0.253    22.4198  42.443457     44.748    8.49952   98.01121 3.2042e+03     0.2509    93.9190     2.8673     0.1034  0.000e+00
     -0.253    22.4002  42.563063     44.892    8.50560   98.04457 4.0696e+03     0.2658    93.5703     2.6695     0.0743  0.000e+00
     -0.253    22.3774  42.682671     45.040    8.50731   98.02152 3.9367e+03     0.2731    93.4009     1.9849     0.0681  0.000e+00
     -0.253    22.3567  43.131196     45.533    8.51185   98.03515 3.8249e+03     0.2669    93.5456     1.7372     0.2084  0.000e+00
     -0.253    22.3447  43.310609     45.734    8.51392   98.03641 3.9402e+03     0.2600    93.7068     2.0170     0.2026  0.000e+00
     -0.253    22.3388  43.340512     45.772    8.50872   97.96544 4.2929e+03     0.2583    93.7463     2.2042     0.1177  0.000e+00
     -0.252    22.3361  42.862084     45.269    8.51253   98.00425 4.3300e+03     0.2618    93.6657     2.2905     0.1415  0.000e+00
     -0.253    22.3349  42.533171     44.923    8.51238   98.00012 2.5819e+03     0.2634    93.6262     2.4986     0.1553  0.000e+00
     -0.253    22.3323  42.114563     44.483    8.51246   97.99592 2.0511e+03     0.2631    93.6345     2.6941     0.1092  0.000e+00
     -0.253    22.3316  41.994962     44.357    8.51392   98.01146 2.1568e+03     0.2620    93.6608     2.4918     0.0513  0.000e+00
     -0.253    22.3358  41.845461     44.196    8.51400   98.02022 3.0676e+03     0.2616    93.6690     2.1885     0.0068  0.000e+00
     -0.252    22.3440  41.367067     43.683    8.51443   98.04045 3.3065e+03     0.2618    93.6641     1.6821     0.2687  0.000e+00
     -0.253    22.3527  40.978379     43.264    8.51297   98.03984 2.2779e+03     0.2624    93.6509     1.3775     0.2567  0.000e+00
     -0.252    22.3613  40.858784     43.130    8.51066   98.02930 2.2442e+03     0.2624    93.6509     1.3230     0.2491  0.000e+00
     -0.252    22.3680  40.559800     42.809    8.50948   98.02833 3.8397e+03     0.2625    93.6493     0.5765     0.7686  0.000e+00
     -0.252    22.3718  40.410310     42.647    8.50606   97.99597 3.6974e+03     0.2632    93.6312     0.5000     1.0150  0.000e+00
     -0.253    22.3744  40.230923     42.456    8.50826   98.02622 2.7631e+03     0.2636    93.6229     1.0208     0.8023  0.000e+00
     -0.252    22.3788  40.171128     42.389    8.50584   98.00654 3.6612e+03     0.2635    93.6246     0.6238     0.3149  0.000e+00
     -0.252    22.3849  40.529900     42.762    8.50552   98.01449 3.6114e+03     0.2632    93.6328     0.0063     0.0911  0.000e+00
     -0.252    22.3909  39.931948     42.126    8.50510   98.02057 3.6317e+03     0.2625    93.6476     0.5796     0.0626  0.000e+00
     -0.252    22.3958  39.752565     41.932    8.50853   98.06923 3.5603e+03     0.2632    93.6312     0.8684     0.0620  0.000e+00
     -0.252    22.3980  40.500000     42.718    8.50416   98.02325 1.6470e+03     0.2639    93.6164     0.5576     0.0000  0.000e+00
     -0.252    22.4003  41.097968     43.347    8.50602   98.04917 1.7499e+03     0.2632    93.6312     0.3467     0.0000  0.000e+00
     -0.252    22.4035  40.739184     42.966    8.50548   98.04890 1.7784e+03     0.2636    93.6229     0.2507     0.0895  0.000e+00
     -0.252    22.4037  40.380408     42.587    8.50459   98.03893 3.7649e+03     0.2641    93.6114     0.1776     0.7209  0.000e+00
     -0.252    22.3954  40.230921     42.437    8.50917   98.07607 3.8941e+03     0.2632    93.6312     0.1098     0.0000  0.000e+00
     -0.246    22.3766  40.230923     42.454    8.50649   98.00988 3.9388e+03     0.2652    93.5851     0.1257     0.0000  0.000e+00
     -0.243    22.3702  40.051539     42.270    8.50663   97.99958 3.9917e+03     0.2694    93.4864     0.1662     0.0000  0.000e+00
     -0.238    22.3631  39.931951     42.150    8.50836   98.00608 4.0298e+03     0.2789    93.2660     0.1405     0.0443  0.000e+00
     -0.249    21.8399  39.872225     42.557    8.58670   97.91848 4.0234e+03     0.2724    93.4173     0.3795     0.0156  0.000e+00
     -0.254    21.2053  39.722822     42.980    8.68051   97.77700 4.0362e+03     0.2672    93.5374     1.0098     0.0862  0.000e+00
     -0.251    21.0617  39.633150     43.017    8.70449   97.77282 3.9959e+03     0.2646    93.5999     0.4955     0.8341  0.000e+00
     -0.228    20.8751  39.543484     43.094    8.73401   97.74664 3.9126e+03     0.2652    93.5851     0.2702     2.1064  0.000e+00
     -0.216    19.6638  39.663227     44.397    8.92810   97.55292 3.8968e+03     0.2657    93.5736     0.1746     2.1276  0.000e+00
     -0.238    18.5823  41.158276     47.214    9.10677   97.36075 3.8289e+03     0.2645    93.6016     0.1605     1.6029  0.000e+00
     -0.255    17.9063  42.623488     49.666    9.22369   97.25785 1.9985e+03     0.2658    93.5703     0.2179     1.1387  0.000e+00
     -0.252    17.6873  44.058842     51.601    9.25947   97.19636 1.7694e+03     0.2653    93.5835     0.3105     0.2932  0.000e+00
     -0.251    17.6578  45.583989     53.425    9.26863   97.23362 1.6183e+03     0.2648    93.5933     0.3424     0.0000  0.000e+00
     -0.252    17.6747  46.869979     54.910    9.26308   97.20981 1.5570e+03     0.2648    93.5950     0.3001     0.0000  0.000e+00
     -0.252    17.7092  48.544877     56.826    9.25694   97.21493 1.6067e+03     0.2646    93.5983     0.2561     0.0000  0.000e+00
     -0.252    17.7661  50.279733     58.779    9.24909   97.24712 1.6070e+03     0.2648    93.5933     0.2088     0.0000  0.000e+00
     -0.252    17.8596  51.595921     60.186    9.23241   97.25901 1.6812e+03     0.2645    93.6016     0.2361     0.0000  0.000e+00
     -0.245    17.9497  52.882276     61.557    9.21997   97.30835 3.6362e+03     0.2644    93.6032     0.3386     0.1165  0.000e+00
     -0.219    17.9044  61.290565     71.420    9.22246   97.24675 3.7590e+03     0.2643    93.6065     0.3105     0.1111  0.000e+00
     -0.223    17.2769  54.587710     64.553    9.32959   97.10720 3.8593e+03     0.2639    93.6147     0.2364     0.0000  0.000e+00
     -0.250    16.7101  53.720173     64.391    9.43195   97.01796 3.9222e+03     0.2634    93.6279     0.0000     0.1791  0.000e+00
     -0.254    16.4869  52.284203     63.007    9.46999   96.95337 3.9188e+03     0.2634    93.6279     0.0000     0.2603  0.000e+00
     -0.252    16.4746  51.566238     62.160    9.47286   96.95730 3.9547e+03     0.2629    93.6378     0.0000     0.2470  0.000e+00
     -0.252    16.5007  51.416661     61.941    9.46959   96.97698 3.9312e+03     0.2634    93.6279     0.0000     0.2125  0.000e+00
     -0.252    16.5489  50.758544     61.077    9.46288   97.00656 3.8661e+03     0.2625    93.6476     0.0000     0.1866  0.000e+00
     -0.251    16.6017  50.608968     60.820    9.45413   97.02427 3.8122e+03     0.2634    93.6262     0.0000     0.0187  0.000e+00
     -0.212    16.6006  70.151728     84.308    9.45506   97.03778 1.8131e+03     0.2629    93.6378     0.0000     0.9363  0.000e+00
     -0.162    16.4190 148.960682    179.804    9.48612   97.01106 1.5840e+03     0.2674    93.5325     0.0000     0.6988  0.000e+00
     -0.112    16.3153 265.096578    320.791    9.49542   96.93332 1.5735e+03     0.2637    93.6197     0.0169     0.4961  0.000e+00
     -0.071    16.2126 260.684117    316.238    9.51169   96.88774 1.5461e+03     0.2630    93.6361     0.0347     0.2885  0.000e+00
     -0.032    16.0497 266.759315    324.892    9.53415   96.78450 1.5223e+03     4.2555    34.5116     0.0435     0.2368  0.000e+00
     -0.001    15.8178 255.608147    313.079    9.56351   96.60236 1.6053e+03     8.3729    12.3288     0.0479     0.3455  0.000e+00
      0.029    15.5714 246.395595    303.629    9.59607   96.42045 1.6854e+03     4.2610    34.4639     0.0591     0.2923  0.000e+00
      0.066    15.3253 240.024759    297.583    9.62019   96.15299 1.7558e+03     3.0251    46.9412     0.0626     0.2903  0.000e+00
      0.110    15.1354 236.945770    295.156    9.62870   95.84533 1.8678e+03     2.8783    48.6964     0.0629     0.2650  0.000e+00
      0.166    14.9989 234.833005    293.523    9.62693   95.54559 3.5899e+03     6.9392    17.6437     0.0614     0.1043  0.000e+00
      0.229    14.8859 236.825223    296.852    9.60461   95.09255 3.8015e+03     2.1051    59.0796     0.0700     0.0300  0.000e+00
      0.286    14.8246 257.512455    323.279    9.57352   94.66662 3.8142e+03     1.6549    66.1186     0.0739     0.0000  0.000e+00
      0.329    14.8010 253.796327    318.803    9.56860   94.56838 3.8028e+03     1.4478    69.6323     0.0674     0.0000  0.000e+00
      0.357    14.8713 251.621271    315.514    9.58929   94.91609 3.7742e+03     1.4435    69.7063     0.0608     0.0000  0.000e+00
      0.377    15.0533 251.198233    313.552    9.61598   95.55459 3.7868e+03     1.4594    69.4300     0.0536     0.0000  0.000e+00
      0.397    15.1982 249.265016    310.017    9.68299   96.52027 3.8015e+03     1.4979    68.7654     0.0578     0.0000  0.000e+00
      0.425    15.2528 248.811928    309.033    9.76471   97.44886 2.3244e+03     1.6229    66.6499     0.0576     0.0000  0.000e+00
      0.463    15.2195 248.842158    309.327    9.85189   98.24858 2.0069e+03     1.5793    67.3803     0.0608     0.0000  0.000e+00
      0.511    15.1449 246.879139    307.457    9.94528   99.02041 1.5622e+03     1.4607    69.4069     0.0663     0.0037  0.000e+00
      0.559    15.0377 238.666494    298.026   10.01634   99.49499 1.6818e+03     1.3840    70.7509     0.0700     0.0119  0.000e+00
      0.609    14.9352 232.297901    290.818   10.07184   99.82305 1.5521e+03     1.3221    71.8547     0.0713     0.0177  0.000e+00
      0.659    14.8564 230.004510    288.516   10.10980  100.02810 1.3162e+03     1.2754    72.6986     0.0738     0.0225  0.000e+00
      0.713    14.7806 228.526028    287.207   10.05504   99.32280 1.3218e+03     1.2537    73.0934     0.0777     0.0315  0.000e+00
      0.765    14.6695 227.801968    287.099    9.69234   95.50970 1.3377e+03     1.2514    73.1361     0.0843     0.0330  0.000e+00
      0.811    14.5575 227.530504    287.569    9.53077   93.68938 1.1873e+03     1.2563    73.0457     0.0849     0.0292  0.000e+00
      0.851    14.4732 226.746116    287.190    9.45684   92.79216 1.0347e+03     1.2773    72.6640     0.0868     0.0214  0.000e+00
      0.888    14.3929 226.444471    287.393    9.41048   92.17581 8.8025e+02     1.2806    72.6032     0.0924     0.0191  0.000e+00
      0.909    14.3174 228.164301    290.132    9.30845   91.02707 9.1639e+02     1.2837    72.5472     0.0947     0.0214  0.000e+00
      0.906    14.2765 228.405714    290.741    9.16920   89.58549 7.9135e+02     1.2857    72.5110     0.1043     0.0236  0.000e+00
      0.887    14.2280 228.466096    291.177    9.02791   88.11176 7.5019e+02     1.2805    72.6064     0.1032     0.0057  0.000e+00
      0.827    14.1786 228.586824    291.699    8.89037   86.67558 7.9903e+02     1.2689    72.8170     0.1032     0.0011  0.000e+00
      0.732    14.1516 225.509390    287.970    8.75267   85.28175 8.9964e+02     1.2649    72.8894     0.1049     0.0024  0.000e+00
      0.640    14.1090 222.372093    284.273    8.50931   82.83249 1.2001e+03     1.2791    72.6311     0.0978     0.0157  0.000e+00
      0.563    14.0904 222.734080    284.871    8.24484   80.22542 2.0045e+03     1.2676    72.8400     0.1063     0.0159  0.000e+00
      0.481    14.1433 231.302622    295.431    8.03603   78.28669 2.1459e+03     1.3865    70.7065     0.0993     0.0171  0.000e+00
      0.390    14.1905 233.052941    297.308    7.91458   77.18368 2.1993e+03     1.2852    72.5209     0.0894     0.0000  0.000e+00
      0.298    14.2146 229.582530    292.700    7.90548   77.13468 3.9037e+03     1.3541    71.2822     0.0747     0.0000  0.000e+00
      0.204    14.2694 228.797958    291.293    7.94288   77.59208 3.9326e+03     4.1785    35.1827     0.0888     0.0000  0.000e+00
      0.107    14.2948 229.431593    291.911    8.02050   78.39397 3.9673e+03    10.4602     7.3164     0.0990     0.0169  0.000e+00
      0.042    14.3153 227.228951    288.958    8.10346   79.23952 4.0454e+03    14.9971     2.3535     0.1058     0.0000  0.000e+00
      0.042    14.3207 226.142807    287.537    8.16609   79.86117 4.0854e+03    11.4477     5.7159     0.0838     0.0000  0.000e+00
      0.073    14.3438 230.065231    292.352    8.21465   80.37770 4.0926e+03    12.6796     4.2008     0.0687     0.0000  0.000e+00
      0.099    14.3623 233.082984    296.048    8.21036   80.36909 4.1041e+03     6.2906    20.7495     0.0459     0.0000  0.000e+00
      0.111    14.4841 234.048669    296.357    8.15102   80.00048 4.1294e+03     8.4773    12.0113     0.0436     0.0000  0.000e+00
      0.101    14.7289 233.897578    294.341    8.07488   79.67521 4.1381e+03    11.1580     6.1452     0.0617     0.0000  0.000e+00
      0.077    14.9647 232.478940    290.830    8.04361   79.77186 4.1614e+03     9.8538     8.5140     0.0610     0.0000  0.000e+00
      0.070    15.0943 231.271721    288.384    8.09057   80.46170 4.1673e+03     8.7300    11.2760     0.0605     0.0110  0.000e+00
      0.094    15.1164 230.004303    286.645    8.19373   81.52607 4.1732e+03    11.6958     5.3721     0.0596     0.0410  0.000e+00
      0.136    15.0498 231.694240    289.232    8.30985   82.56338 4.1614e+03    12.2171     4.7157     0.0615     0.0589  0.000e+00
      0.167    14.9737 233.987936    292.651    8.40884   83.41064 4.1388e+03    18.2482     1.0441     0.0572     0.0411  0.000e+00
      0.194    14.9825 233.837025    292.398    8.45554   83.88977 4.1381e+03     7.7527    14.3965     0.0583     0.0483  0.000e+00
      0.242    15.1683 232.599506    289.505    8.44253   84.09604 4.1214e+03     2.0507    59.8890     0.0647     0.0240  0.000e+00
      0.294    15.3053 232.629582    288.558    8.42582   84.17702 4.1070e+03     1.5139    68.4907     0.0689     0.0000  0.000e+00
      0.340    15.3472 233.836751    289.754    8.43167   84.31152 4.0582e+03     1.3951    70.5551     0.0641     0.0000  0.000e+00
      0.386    15.3629 234.259276    290.165    8.45857   84.60915 3.9520e+03     1.3487    71.3793     0.0610     0.0000  0.000e+00
      0.436    15.3484 233.474585    289.297    8.53216   85.31840 2.8674e+03     1.3707    70.9861     0.0685     0.0000  0.000e+00
      0.484    15.3102 232.931376    288.897    8.63851   86.31104 1.9349e+03     1.3279    71.7510     0.0704     0.0000  0.000e+00
      0.526    15.2186 232.297686    288.768    8.74129   87.16617 2.1200e+03     1.3028    72.2018     0.0639     0.0000  0.000e+00
      0.565    15.1072 230.094846    286.824    8.81211   87.66147 1.8704e+03     1.3248    71.8053     0.0629     0.0000  0.000e+00
      0.606    14.9973 226.866407    283.577    8.82678   87.59866 1.6246e+03     1.3024    72.2100     0.0645     0.0066  0.000e+00
      0.643    14.9062 225.689848    282.750    8.77412   86.90464 1.8116e+03     1.2761    72.6854     0.0665     0.0090  0.000e+00
      0.673    14.8275 225.599399    283.195    8.66217   85.65005 1.4945e+03     1.2915    72.4058     0.0683     0.0687  0.000e+00
      0.711    14.7450 224.392738    282.266    8.53046   84.19684 1.5515e+03     1.2710    72.7792     0.0733     0.0587  0.000e+00
      0.759    14.6682 222.824160    280.835    8.36306   82.40686 1.8892e+03     1.2517    73.1312     0.0788     0.0342  0.000e+00
      0.812    14.5889 222.341585    280.788    8.19633   80.62504 1.5008e+03     1.2429    73.2908     0.0783     0.0362  0.000e+00
      0.860    14.5092 222.371808    281.393    8.09958   79.53532 1.8770e+03     1.2408    73.3302     0.0814     0.0403  0.000e+00
      0.899    14.4510 224.091286    283.987    8.07331   79.17766 1.4503e+03     1.2202    73.7086     0.0824     0.0085  0.000e+00
      0.914    14.4290 228.284909    289.463    8.11702   79.56936 1.3464e+03     1.2120    73.8599     0.0797     0.0000  0.000e+00
      0.913    14.4301 229.280637    290.718    8.22831   80.66262 1.6095e+03     1.2986    72.2774     0.0803     0.0171  0.000e+00
      0.904    14.4077 226.233270    287.017    8.36848   81.99578 1.6937e+03     1.2484    73.1904     0.0776     0.0257  0.000e+00
      0.893    14.3870 224.212000    284.602    8.50910   83.33541 1.6005e+03     1.2590    72.9980     0.0795     0.0242  0.000e+00
      0.882    14.3660 222.160763    282.149    8.63975   84.57561 1.3438e+03     1.2627    72.9305     0.0850     0.0645  0.000e+00
      0.878    14.3016 220.924123    281.038    8.74916   85.52596 1.4731e+03     1.2774    72.6624     0.0841     0.0593  0.000e+00
      0.883    14.2094 220.170148    280.738    8.81831   86.02827 1.4807e+03     1.3183    71.9221     0.0835     0.0554  0.000e+00
      0.897    14.1420 219.747945    280.682    8.84008   86.11360 1.4175e+03     1.2837    72.5472     0.0832     0.0729  0.000e+00
      0.914    14.1005 219.989261    281.288    8.82618   85.90026 1.2181e+03     1.2780    72.6509     0.0883     0.0681  0.000e+00
      0.930    14.0838 221.225905    282.990    8.75350   85.16201 1.4280e+03     1.2749    72.7068     0.0859     0.0467  0.000e+00
      0.938    14.1007 223.729544    286.069    8.64991   84.18629 1.4470e+03     1.2944    72.3531     0.0835     0.0285  0.000e+00
      0.935    14.1233 224.634536    287.061    8.52259   82.98829 1.4351e+03     1.2888    72.4551     0.0842     0.0236  0.000e+00
      0.924    14.1177 222.160943    283.940    8.38503   81.63798 1.3909e+03     1.2637    72.9108     0.0787     0.0272  0.000e+00
      0.909    14.0917 220.984599    282.625    8.26153   80.38958 1.3382e+03     1.2649    72.8894     0.0746     0.0264  0.000e+00
      0.896    14.0471 219.838495    281.480    8.17126   79.43322 1.4613e+03     1.2779    72.6525     0.0800     0.0000  0.000e+00
      0.888    14.0026 219.325802    281.144    8.13814   79.03386 2.1564e+03     1.2822    72.5752     0.0823     0.0000  0.000e+00
      0.885    13.9711 219.205185    281.216    8.15138   79.10781 1.5918e+03     1.2998    72.2561     0.0843     0.0000  0.000e+00
      0.884    13.9603 219.265512    281.372    8.20790   79.63740 1.3562e+03     1.2828    72.5637     0.0845     0.0085  0.000e+00
      0.887    13.9645 219.506789    281.651    8.27962   80.34075 1.6183e+03     1.2701    72.7956     0.0820     0.0246  0.000e+00
      0.894    13.9701 220.049675    282.307    8.33296   80.86843 1.4113e+03     1.2731    72.7397     0.0770     0.0410  0.000e+00
      0.908    13.9611 219.748075    281.985    8.35494   81.06570 1.5245e+03     1.2792    72.6295     0.0767     0.0516  0.000e+00
      0.924    13.9442 219.265524    281.488    8.34397   80.92910 1.4998e+03     1.2751    72.7035     0.0798     0.0427  0.000e+00
      0.938    13.9324 219.446493    281.806    8.31451   80.62244 1.4664e+03     1.2844    72.5357     0.0798     0.0311  0.000e+00
      0.946    13.9287 219.687778    282.143    8.29357   80.41292 1.5101e+03     1.2758    72.6920     0.0809     0.0266  0.000e+00
      0.947    13.9341 219.868737    282.336    8.28120   80.30262 1.3624e+03     1.2721    72.7578     0.0878     0.0211  0.000e+00
      0.941    13.9427 220.170340    282.661    8.27271   80.23549 1.5507e+03     1.2861    72.5045     0.0931     0.0327  0.000e+00
      0.930    13.9405 220.110019    282.599    8.26845   80.19025 1.7841e+03     1.2865    72.4979     0.0957     0.0273  0.000e+00
      0.915    13.9281 219.325855    281.682    8.26816   80.16545 1.6836e+03     1.2835    72.5505     0.0903     0.0241  0.000e+00
      0.901    13.9131 219.084588    281.481    8.27960   80.24969 1.3946e+03     1.2875    72.4798     0.0869     0.0282  0.000e+00
      0.892    13.9009 218.963959    281.414    8.28899   80.31914 1.6560e+03     1.2772    72.6657     0.0893     0.0146  0.000e+00
      0.892    13.8901 218.873488    281.376    8.30053   80.41196 1.5677e+03     1.2718    72.7644     0.1154     0.0000  0.000e+00
      0.901    13.8793 218.692541    281.222    8.30532   80.43912 1.4138e+03     1.2826    72.5686     0.1335     0.0000  0.000e+00
      0.915    13.8730 219.446535    282.237    8.30427   80.41807 1.5223e+03     1.2711    72.7759     0.1234     0.0098  0.000e+00
      0.928    13.8835 222.100785    285.573    8.29627   80.36000 1.5096e+03     1.2514    73.1361     0.1162     0.0230  0.000e+00
      0.934    13.9163 223.790010    287.503    8.27657   80.22746 1.5790e+03     1.2491    73.1773     0.1107     0.0301  0.000e+00
      0.935    13.9294 223.971000    287.638    8.23595   79.85671 1.3980e+03     1.2951    72.3416     0.1015     0.0300  0.000e+00
      0.930    13.9260 223.216850    286.695    8.17845   79.29307 1.7234e+03     1.2967    72.3120     0.0928     0.0253  0.000e+00
      0.924    13.9236 221.105369    284.000    8.10797   78.60502 1.4059e+03     1.2826    72.5670     0.1023     0.0175  0.000e+00
      0.916    13.9228 220.743423    283.542    8.01534   77.70541 1.4675e+03     1.2964    72.3169     0.1062     0.0062  0.000e+00
      0.908    13.9195 220.803749    283.643    7.93165   76.88854 1.4843e+03     1.2944    72.3531     0.1055     0.0008  0.000e+00
      0.903    13.9166 221.195862    284.168    7.87195   76.30504 1.2447e+03     1.3065    72.1360     0.1104     0.0000  0.000e+00
      0.905    13.9242 221.165694    284.073    7.82254   75.83890 1.5312e+03     1.3123    72.0307     0.1099     0.0000  0.000e+00
      0.912    13.9392 220.954546    283.693    7.81946   75.83397 1.2586e+03     1.3088    72.0932     0.1019     0.0000  0.000e+00
      0.921    13.9451 220.924380    283.611    7.82290   75.87702 1.4255e+03     1.3145    71.9912     0.0951     0.0000  0.000e+00
      0.927    13.9419 221.406983    284.254    7.83516   75.99081 1.2963e+03     1.3263    71.7790     0.0977     0.0004  0.000e+00
      0.927    13.9438 222.523040    285.673    7.84982   76.13637 1.1621e+03     1.3170    71.9468     0.0966     0.0056  0.000e+00
      0.923    13.9605 223.548648    286.867    7.85093   76.17550 1.2469e+03     1.3267    71.7724     0.0951     0.0140  0.000e+00
      0.914    13.9809 224.151963    287.490    7.83682   76.07279 1.3545e+03     1.3103    72.0669     0.0938     0.0237  0.000e+00
      0.902    13.9925 224.242455    287.521    7.79716   75.70707 1.2757e+03     1.3109    72.0570     0.0915     0.0163  0.000e+00
      0.896    13.9966 224.091617    287.298    7.74950   75.25099 1.6303e+03     1.3082    72.1047     0.0875     0.0063  0.000e+00
      0.896    14.0013 223.669283    286.721    7.68311   74.61400 1.4118e+03     1.2985    72.2807     0.0847     0.0146  0.000e+00
      0.905    14.0059 223.216791    286.108    7.62451   74.05211 1.1353e+03     1.2974    72.2988     0.0857     0.0358  0.000e+00
      0.917    14.0068 223.246956    286.139    7.55581   73.38648 1.2683e+03     1.3074    72.1195     0.0871     0.0368  0.000e+00
      0.931    14.0070 224.031277    287.143    7.49097   72.75731 1.4693e+03     1.3092    72.0866     0.0893     0.0349  0.000e+00
      0.940    14.0142 225.177639    288.559    7.43295   72.20532 1.1230e+03     1.3020    72.2166     0.0864     0.0298  0.000e+00
      0.940    14.0260 225.871516    289.361    7.37359   71.64743 1.4885e+03     1.2864    72.4995     0.0855     0.0289  0.000e+00
      0.935    14.0358 226.082695    289.559    7.32449   71.18568 1.1703e+03     1.2952    72.3400     0.0861     0.0215  0.000e+00
      0.926    14.0537 226.263701    289.658    7.27271   70.71015 1.2246e+03     1.2771    72.6673     0.0858     0.0180  0.000e+00
      0.916    14.1117 226.142979    289.074    7.22909   70.37545 1.3614e+03     1.2836    72.5489     0.0848     0.0040  0.000e+00
      0.910    14.2049 225.811045    287.963    7.17932   70.03356 1.3276e+03     1.2884    72.4633     0.0861     0.0000  0.000e+00
      0.905    14.2719 225.660150    287.280    7.14713   69.82163 1.4170e+03     1.2830    72.5604     0.0888     0.0000  0.000e+00
      0.906    14.3023 225.750635    287.172    7.12404   69.64228 1.4974e+03     1.2659    72.8713     0.0858     0.0137  0.000e+00
      0.908    14.3183 226.022148    287.401    7.09189   69.35226 1.2735e+03     1.2863    72.5012     0.0829     0.0362  0.000e+00
      0.912    14.3417 226.323829    287.614    7.06571   69.13152 1.3528e+03     1.3005    72.2429     0.0813     0.0310  0.000e+00
      0.912    14.3819 226.806526    287.932    7.03622   68.90352 1.3495e+03     1.2884    72.4617     0.0780     0.0269  0.000e+00
      0.913    14.4360 227.228880    288.073    7.00092   68.63872 1.6525e+03     1.3024    72.2100     0.0884     0.0274  0.000e+00
      0.914    14.4855 227.470216    288.017    6.97667   68.47480 1.4283e+03     1.3176    71.9353     0.0901     0.0310  0.000e+00
      0.917    14.5154 227.500365    287.837    6.95291   68.28598 1.2818e+03     1.3232    71.8349     0.0928     0.0264  0.000e+00
      0.925    14.5311 227.530526    287.761    6.94058   68.18818 1.3951e+03     1.3169    71.9484     0.0948     0.0140  0.000e+00
      0.929    14.5434 227.922754    288.168    6.93862   68.18718 1.5713e+03     1.3072    72.1228     0.0938     0.0153  0.000e+00
      0.930    14.5616 228.103775    288.264    6.93389   68.16781 1.2861e+03     1.3010    72.2347     0.0964     0.0029  0.000e+00
      0.932    14.6040 228.284780    288.184    6.92694   68.16229 1.1940e+03     1.2797    72.6212     0.0906     0.0022  0.000e+00
      0.930    14.6546 228.345088    287.892    6.92953   68.26262 1.5592e+03     1.2840    72.5423     0.0893     0.0002  0.000e+00
      0.929    14.7010 228.435573    287.670    6.94274   68.46156 1.2581e+03     1.2862    72.5028     0.0874     0.0079  0.000e+00
      0.927    14.7597 228.526048    287.358    6.95143   68.63456 1.1015e+03     1.2986    72.2774     0.0830     0.0144  0.000e+00
      0.924    14.8449 228.525985    286.744    6.96024   68.84832 1.2906e+03     1.2768    72.6739     0.0835     0.0007  0.000e+00
      0.917    14.9548 228.525903    285.955    6.96421   69.05123 1.2721e+03     1.3058    72.1475     0.0879     0.0064  0.000e+00
      0.902    15.0737 228.435295    284.993    6.97334   69.31918 1.4659e+03     1.2956    72.3317     0.0906     0.0074  0.000e+00
      0.883    15.1858 228.224002    283.935    6.98348   69.58758 1.1533e+03     1.2878    72.4732     0.0921     0.0095  0.000e+00
      0.865    15.2850 228.223928    283.236    7.00445   69.94535 1.3756e+03     1.2892    72.4485     0.0867     0.0000  0.000e+00
      0.855    15.3635 228.404906    282.909    7.02495   70.26834 1.4739e+03     1.2845    72.5324     0.0816     0.0000  0.000e+00
      0.862    15.4026 228.072977    282.224    7.05285   70.60645 1.5482e+03     1.2823    72.5735     0.0808     0.0011  0.000e+00
      0.884    15.4254 227.560035    281.431    7.07693   70.88208 1.4044e+03     1.2889    72.4535     0.0835     0.0128  0.000e+00
      0.914    15.4260 227.318663    281.129    7.08702   70.98382 1.2504e+03     1.2959    72.3268     0.0842     0.0274  0.000e+00
      0.942    15.3930 227.801436    281.956    7.08911   70.95476 1.4867e+03     1.3188    71.9139     0.0859     0.0341  0.000e+00
      0.959    15.3669 228.525598    283.034    7.07329   70.75716 1.1159e+03     1.3197    71.8974     0.0864     0.0327  0.000e+00
      0.960    15.3553 228.917861    283.602    7.04430   70.44967 1.3521e+03     1.2992    72.2676     0.0887     0.0369  0.000e+00
      0.947    15.3563 228.857513    283.520    7.01500   70.15807 1.3727e+03     1.3096    72.0800     0.0838     0.0327  0.000e+00
      0.924    15.4174 228.646253    282.830    6.98045   69.90394 1.2648e+03     1.2882    72.4666     0.0781     0.0209  0.000e+00
      0.900    15.5031 228.525496    282.082    6.96528   69.88001 1.7219e+03     1.2851    72.5225     0.0819     0.0411  0.000e+00
      0.884    15.5686 228.465101    281.553    6.97427   70.06819 1.4047e+03     1.3033    72.1935     0.0849     0.0440  0.000e+00
      0.877    15.6002 228.284040    281.110    6.99404   70.31416 1.8698e+03     1.2966    72.3136     0.0816     0.0384  0.000e+00
      0.880    15.5981 228.223696    281.051    7.03924   70.76536 1.3102e+03     1.3214    71.8678     0.0793     0.0215  0.000e+00
      0.887    15.5829 228.103017    281.007    7.09980   71.35108 1.5871e+03     1.3017    72.2215     0.0826     0.0157  0.000e+00
      0.895    15.5779 228.284057    281.265    7.17785   72.12768 1.3396e+03     1.3159    71.9665     0.0859     0.0215  0.000e+00
      0.901    15.5835 228.646129    281.673    7.26441   73.00625 1.5804e+03     1.2975    72.2972     0.0874     0.0215  0.000e+00
      0.903    15.5973 228.857333    281.837    7.36687   74.05788 1.4121e+03     1.3101    72.0702     0.0850     0.0213  0.000e+00
      0.901    15.6051 228.978022    281.931    7.44101   74.81572 1.8730e+03     1.3180    71.9287     0.0857     0.0232  0.000e+00
      0.899    15.6040 229.098718    282.087    7.51377   75.54559 1.4664e+03     1.3380    71.5701     0.0826     0.0188  0.000e+00
      0.897    15.6252 228.917659    281.717    7.56579   76.10296 1.5000e+03     1.3296    71.7198     0.0824     0.0175  0.000e+00
      0.901    15.6765 228.917621    281.362    7.59440   76.47423 1.5229e+03     1.3276    71.7560     0.0793     0.0000  0.000e+00
      0.910    15.7292 228.857235    280.924    7.60392   76.65621 1.5022e+03     1.3268    71.7708     0.0788     0.0000  0.000e+00
      0.924    15.7678 228.796859    280.584    7.59848   76.66431 1.4516e+03     1.3391    71.5504     0.0813     0.0000  0.000e+00
      0.937    15.7934 228.857188    280.482    7.58284   76.54817 1.4516e+03     1.3407    71.5207     0.0822     0.0000  0.000e+00
      0.943    15.8182 228.736475    280.163    7.55209   76.27795 1.3422e+03     1.3370    71.5882     0.0818     0.0000  0.000e+00
      0.941    15.8481 228.525240    279.700    7.51656   75.96730 1.5540e+03     1.3318    71.6803     0.0875     0.0000  0.000e+00
      0.929    15.8709 228.434704    279.433    7.47145   75.54794 1.2502e+03     1.3176    71.9353     0.0867     0.0111  0.000e+00
      0.911    15.8711 227.861425    278.730    7.42784   75.10719 1.4534e+03     1.3085    72.0998     0.0856     0.0000  0.000e+00
      0.892    15.8673 227.499365    278.314    7.38970   74.71536 1.6789e+03     1.3164    71.9567     0.0867     0.0000  0.000e+00
      0.876    15.8658 227.227824    277.991    7.36746   74.48805 1.4580e+03     1.3190    71.9106     0.0853     0.0255  0.000e+00
      0.868    15.8454 227.107154    277.983    7.34583   74.23715 1.3490e+03     1.3011    72.2330     0.0879     0.0282  0.000e+00
      0.870    15.8069 227.167525    278.319    7.33063   74.02292 1.4198e+03     1.3042    72.1771     0.0895     0.0278  0.000e+00
      0.878    15.7796 227.288230    278.653    7.31747   73.84723 1.7734e+03     1.2935    72.3696     0.0964     0.0233  0.000e+00
      0.891    15.7687 227.469267    278.949    7.30620   73.71645 1.1921e+03     1.2863    72.5012     0.0945     0.0255  0.000e+00
      0.906    15.7686 227.499439    278.987    7.30136   73.66743 1.4503e+03     1.3050    72.1623     0.0892     0.0281  0.000e+00
      0.919    15.7713 227.348580    278.784    7.29814   73.63915 1.4890e+03     1.3139    72.0027     0.0867     0.0208  0.000e+00
      0.929    15.7717 227.378751    278.818    7.29638   73.62200 1.4173e+03     1.3336    71.6491     0.0823     0.0107  0.000e+00
      0.932    15.7769 227.107206    278.450    7.29770   73.64339 1.5715e+03     1.3083    72.1031     0.0851     0.0000  0.000e+00
      0.930    15.7818 226.624471    277.824    7.29362   73.60985 1.2901e+03     1.3109    72.0554     0.0841     0.0000  0.000e+00
      0.926    15.7755 226.654646    277.904    7.30260   73.69057 1.3405e+03     1.3236    71.8284     0.0903     0.0000  0.000e+00
      0.921    15.7518 226.745175    278.177    7.32015   73.83035 1.4812e+03     1.3123    72.0307     0.0931     0.0000  0.000e+00
      0.916    15.7053 227.016746    278.828    7.34814   74.03935 1.2124e+03     1.3061    72.1426     0.0919     0.0000  0.000e+00
      0.912    15.6588 227.227977    279.407    7.38160   74.30300 1.4074e+03     1.2894    72.4436     0.0879     0.0000  0.000e+00
      0.908    15.6221 227.318518    279.771    7.40620   74.49228 1.2818e+03     1.3108    72.0587     0.0889     0.0000  0.000e+00
      0.905    15.5952 227.620254    280.328    7.41351   74.52316 1.3657e+03     1.2903    72.4288     0.0929     0.0050  0.000e+00
      0.898    15.5743 228.012506    280.955    7.40675   74.42207 1.3929e+03     1.3011    72.2330     0.1042     0.0193  0.000e+00
      0.889    15.5562 228.465110    281.639    7.39073   74.23256 1.4737e+03     1.3048    72.1656     0.0956     0.0261  0.000e+00
      0.879    15.5460 228.917718    282.268    7.35440   73.85160 1.2911e+03     1.3119    72.0373     0.0877     0.0253  0.000e+00
      0.874    15.5498 229.159106    282.539    7.31251   73.43695 1.3746e+03     1.3272    71.7626     0.0822     0.0342  0.000e+00
      0.877    15.5719 229.219437    282.459    7.27266   73.07136 1.5691e+03     1.3310    71.6951     0.0816     0.0312  0.000e+00
      0.892    15.5953 228.978029    281.999    7.23137   72.69275 1.1297e+03     1.3509    71.3398     0.0885     0.0357  0.000e+00
      0.913    15.6073 228.736632    281.619    7.19472   72.34271 1.3756e+03     1.3519    71.3217     0.0894     0.0365  0.000e+00
      0.935    15.6122 228.706455    281.547    7.15788   71.97991 1.4765e+03     1.3472    71.4056     0.0867     0.0515  0.000e+00
      0.950    15.6170 228.796972    281.626    7.11908   71.59698 1.3276e+03     1.3497    71.3612     0.0860     0.0473  0.000e+00
      0.953    15.6243 229.641842    282.615    7.07632   71.17820 1.5122e+03     1.3447    71.4500     0.0841     0.0433  0.000e+00
      0.941    15.6397 231.271330    284.512    7.04016   70.83824 1.0717e+03     1.3385    71.5602     0.0813     0.0314  0.000e+00
      0.921    15.6795 233.112184    286.496    6.99768   70.47101 1.2117e+03     1.3286    71.7379     0.0781     0.0243  0.000e+00
      0.898    15.7398 234.772091    288.109    6.97420   70.32525 1.2302e+03     1.3514    71.3299     0.0789     0.0195  0.000e+00
      0.882    15.7883 235.285157    288.396    6.97141   70.36979 1.5207e+03     1.3383    71.5635     0.0869     0.0313  0.000e+00
      0.879    15.8391 234.621105    287.224    6.98370   70.56997 1.4419e+03     1.3392    71.5487     0.0912     0.0181  0.000e+00
      0.886    15.8683 232.870604    284.877    7.01569   70.93677 1.3766e+03     1.3177    71.9336     0.0894     0.0257  0.000e+00
      0.898    15.8749 232.085949    283.871    7.06966   71.49232 1.4765e+03     1.3292    71.7280     0.0887     0.0301  0.000e+00
      0.907    15.8759 233.232754    285.267    7.13024   72.10676 1.1220e+03     1.3535    71.2921     0.0826     0.0279  0.000e+00
      0.910    15.8776 235.345456    287.839    7.20157   72.83121 1.5112e+03     1.3359    71.6063     0.0814     0.0220  0.000e+00
      0.905    15.8776 236.130228    288.799    7.26719   73.49504 1.1686e+03     1.3212    71.8711     0.0850     0.0086  0.000e+00
      0.896    15.8820 237.065954    289.913    7.31465   73.98216 1.5776e+03     1.3320    71.6770     0.0870     0.0200  0.000e+00
      0.890    15.9045 238.122456    291.044    7.35752   74.45158 1.1315e+03     1.3287    71.7362     0.0869     0.0225  0.000e+00
      0.894    15.9390 237.669629    290.246    7.39039   74.83897 1.5344e+03     1.3281    71.7478     0.0839     0.0325  0.000e+00
      0.910    15.9651 234.711555    286.450    7.42743   75.25496 1.2092e+03     1.3420    71.4977     0.0845     0.0402  0.000e+00
      0.932    15.9764 233.172319    284.494    7.44328   75.43313 1.2795e+03     1.3351    71.6211     0.0961     0.0330  0.000e+00
      0.948    15.9739 233.474122    284.879    7.45009   75.49829 1.3968e+03     1.3573    71.2246     0.1009     0.0159  0.000e+00
      0.951    15.9724 236.009420    287.983    7.45066   75.50232 1.2954e+03     1.3137    72.0060     0.0976     0.0238  0.000e+00
      0.940    15.9727 238.122404    290.560    7.44408   75.43663 1.1108e+03     1.2990    72.2709     0.1009     0.0246  0.000e+00
      0.917    15.9715 242.198052    295.541    7.43141   75.30735 1.3703e+03     1.3067    72.1310     0.0932     0.0371  0.000e+00
      0.888    15.9970 243.888905    297.420    7.40130   75.04330 1.0657e+03     1.3232    71.8349     0.0928     0.0423  0.000e+00
      0.867    16.0438 244.915536    298.330    7.36351   74.73455 1.4726e+03     1.3152    71.9781     0.0994     0.0349  0.000e+00
      0.860    16.0819 243.586885    296.437    7.32568   74.41013 1.3761e+03     1.3098    72.0768     0.0985     0.0145  0.000e+00
      0.866    16.0984 239.541143    291.396    7.30853   74.26095 1.2166e+03     1.3101    72.0702     0.0938     0.0208  0.000e+00
      0.886    16.1003 237.699690    289.143    7.30435   74.22084 1.1917e+03     1.3352    71.6194     0.0954     0.0497  0.000e+00
      0.908    16.0912 237.186535    288.583    7.31984   74.36380 1.2207e+03     1.3308    71.6984     0.0959     0.0364  0.000e+00
      0.923    16.0835 238.484565    290.216    7.35157   74.67444 1.2284e+03     1.3480    71.3908     0.1012     0.0256  0.000e+00
      0.929    16.0827 241.201622    293.529    7.38889   75.05293 1.3526e+03     1.3368    71.5915     0.0961     0.0303  0.000e+00
      0.922    16.0777 243.284943    296.100    7.42138   75.37547 1.3391e+03     1.3381    71.5684     0.0989     0.0357  0.000e+00
      0.912    16.0730 246.214020    299.699    7.43652   75.52251 1.5616e+03     1.3289    71.7329     0.1040     0.0452  0.000e+00
      0.904    16.0984 247.361584    300.910    7.44187   75.61789 1.3540e+03     1.3411    71.5142     0.1060     0.0462  0.000e+00
      0.903    16.1326 247.995775    301.431    7.43157   75.56791 1.7731e+03     1.3403    71.5290     0.1015     0.0334  0.000e+00
      0.907    16.1556 248.207167    301.518    7.41701   75.45673 1.2793e+03     1.3343    71.6359     0.0992     0.0228  0.000e+00
      0.914    16.1683 248.176956    301.389    7.40699   75.37495 1.5586e+03     1.3282    71.7445     0.0992     0.0211  0.000e+00
      0.919    16.1772 247.512524    300.517    7.40646   75.38357 1.3848e+03     1.3315    71.6852     0.0990     0.0189  0.000e+00
      0.917    16.1830 248.297751    301.429    7.41542   75.48416 1.4180e+03     1.3306    71.7017     0.0934     0.0208  0.000e+00
      0.909    16.1851 249.989117    303.466    7.42918   75.62801 1.2073e+03     1.3292    71.7264     0.0932     0.0246  0.000e+00
      0.896    16.2338 251.136870    304.499    7.42969   75.71135 1.5740e+03     1.3172    71.9435     0.0896     0.0063  0.000e+00
      0.883    16.2982 251.136817    304.024    7.41065   75.62005 1.2983e+03     1.3156    71.9715     0.0902     0.0144  0.000e+00
      0.874    16.3686 251.197171    303.580    7.38751   75.49585 1.1382e+03     1.3096    72.0800     0.0915     0.0151  0.000e+00
      0.875    16.4428 250.623205    302.344    7.34794   75.20871 1.3253e+03     1.3194    71.9040     0.0912     0.0157  0.000e+00
      0.885    16.4893 247.995487    298.838    7.30983   74.89114 1.1255e+03     1.3205    71.8826     0.0864     0.0016  0.000e+00
      0.901    16.5064 245.700301    295.951    7.27874   74.59882 1.2697e+03     1.3276    71.7560     0.0867     0.0141  0.000e+00
      0.918    16.4994 245.096356    295.273    7.26868   74.48463 1.1707e+03     1.3188    71.9139     0.0872     0.0124  0.000e+00
      0.931    16.4860 246.576078    297.151    7.28407   74.62177 9.5468e+02     1.3238    71.8234     0.0849     0.0202  0.000e+00
      0.935    16.4768 250.109698    301.477    7.31523   74.92731 1.5622e+03     1.3233    71.8333     0.0851     0.0218  0.000e+00
      0.933    16.4592 250.895041    302.552    7.35831   75.34097 1.0809e+03     1.3086    72.0981     0.0880     0.0256  0.000e+00
      0.923    16.4433 251.771032    303.725    7.39962   75.73878 1.3778e+03     1.3080    72.1080     0.0922     0.0192  0.000e+00
      0.913    16.4466 253.190797    305.413    7.43368   76.09302 1.3734e+03     1.3262    71.7807     0.0943     0.0101  0.000e+00
      0.906    16.4482 253.855401    306.203    7.46467   76.41296 1.2160e+03     1.3134    72.0110     0.0942     0.0172  0.000e+00
      0.904    16.4495 253.402258    305.647    7.48424   76.61543 1.2215e+03     1.3018    72.2199     0.0961     0.0174  0.000e+00
      0.907    16.4529 252.616832    304.674    7.49424   76.72310 1.2573e+03     1.3049    72.1639     0.0986     0.0168  0.000e+00
      0.910    16.4510 253.251211    305.453    7.48647   76.64059 1.4213e+03     1.3046    72.1705     0.0928     0.0240  0.000e+00
      0.909    16.4484 254.187712    306.602    7.46501   76.41693 1.3739e+03     1.3109    72.0554     0.0905     0.0230  0.000e+00
      0.903    16.4488 253.976240    306.344    7.43172   76.07680 1.3535e+03     1.3068    72.1294     0.0903     0.0175  0.000e+00
      0.893    16.4450 255.728497    308.486    7.39456   75.69073 1.3846e+03     1.3212    71.8711     0.0886     0.0083  0.000e+00
      0.885    16.4470 256.574463    309.491    7.35445   75.28359 1.2847e+03     1.3292    71.7264     0.0885     0.0052  0.000e+00
      0.881    16.4640 256.755733    309.583    7.30209   74.77433 1.6252e+03     1.3183    71.9238     0.0875     0.0091  0.000e+00
      0.886    16.5004 256.242070    308.693    7.26330   74.43393 1.5117e+03     1.3189    71.9123     0.0848     0.0075  0.000e+00
      0.899    16.5288 255.396092    307.463    7.22738   74.10986 1.4854e+03     1.3308    71.6984     0.0848     0.0039  0.000e+00
      0.913    16.5377 255.607571    307.652    7.19909   73.83363 1.1309e+03     1.3582    71.2098     0.0862     0.0211  0.000e+00
      0.927    16.5399 256.513959    308.727    7.17089   73.54801 1.2742e+03     1.3352    71.6194     0.0890     0.0385  0.000e+00
      0.935    16.5478 255.396077    307.323    7.13297   73.17099 1.5773e+03     1.3342    71.6375     0.0864     0.0381  0.000e+00
      0.936    16.5558 256.513946    308.609    7.09844   72.82925 1.2181e+03     1.3428    71.4829     0.0822     0.0489  0.000e+00
      0.931    16.5576 257.571450    309.867    7.06304   72.46908 1.4948e+03     1.3349    71.6244     0.0779     0.0672  0.000e+00
      0.920    16.5697 257.813163    310.068    7.03105   72.15915 1.3422e+03     1.3446    71.4517     0.0758     0.0665  0.000e+00
      0.904    16.6108 257.722482    309.652    7.00754   71.97999 1.3114e+03     1.3694    71.0108     0.0825     0.0405  0.000e+00
      0.887    16.6652 257.813082    309.357    6.99403   71.92322 1.6078e+03     1.3322    71.6737     0.0836     0.0400  0.000e+00
      0.871    16.7138 258.054767    309.286    6.98849   71.93950 1.2224e+03     1.3553    71.2608     0.0883     0.0359  0.000e+00
      0.862    16.7500 258.236032    309.235    6.99084   72.01835 1.6470e+03     1.3292    71.7264     0.0855     0.0021  0.000e+00
      0.864    16.7728 255.939712    306.318    7.00332   72.18074 1.3812e+03     1.3382    71.5668     0.0867     0.0000  0.000e+00
      0.878    16.7831 251.891581    301.398    7.02960   72.46629 1.3084e+03     1.3121    72.0340     0.0882     0.0000  0.000e+00
      0.898    16.7795 250.894779    300.232    7.06464   72.82158 1.5932e+03     1.3212    71.8711     0.0864     0.0050  0.000e+00
      0.915    16.7552 251.257268    300.840    7.10229   73.17270 1.2604e+03     1.3327    71.6639     0.0929     0.0228  0.000e+00
      0.923    16.7393 252.193689    302.077    7.14788   73.61813 1.2829e+03     1.3215    71.8645     0.0886     0.0070  0.000e+00
      0.923    16.7270 255.788688    306.473    7.19692   74.10502 1.2058e+03     1.3393    71.5471     0.0903     0.0000  0.000e+00
      0.914    16.6964 256.151268    307.133    7.24175   74.51890 1.2836e+03     1.3308    71.6984     0.0887     0.0053  0.000e+00
      0.904    16.6603 257.933949    309.538    7.28340   74.89135 1.3848e+03     1.3305    71.7033     0.0895     0.0156  0.000e+00
      0.895    16.6416 258.628938    310.511    7.32213   75.26025 1.5688e+03     1.3127    72.0241     0.0861     0.0141  0.000e+00
      0.889    16.6279 258.810250    310.831    7.35368   75.56290 1.2043e+03     1.3204    71.8843     0.0816     0.0155  0.000e+00
      0.889    16.6273 258.840468    310.872    7.37855   75.81748 1.3875e+03     1.3204    71.8859     0.0788     0.0000  0.000e+00
      0.891    16.6318 258.749813    310.730    7.38360   75.87651 1.6774e+03     1.3281    71.7478     0.0758     0.0000  0.000e+00
      0.892    16.6349 258.931113    310.925    7.37259   75.76828 1.1609e+03     1.3166    71.9534     0.0776     0.0125  0.000e+00
      0.892    16.6381 258.568507    310.465    7.36117   75.65603 1.6607e+03     1.3181    71.9271     0.0808     0.0119  0.000e+00
      0.891    16.6392 259.051978    311.038    7.34001   75.44032 1.2111e+03     1.3094    72.0833     0.0773     0.0143  0.000e+00
      0.888    16.6305 259.777214    311.974    7.31146   75.13325 1.5272e+03     1.3007    72.2396     0.0777     0.0159  0.000e+00
      0.890    16.6261 259.988748    312.261    7.27217   74.72276 1.5461e+03     1.2903    72.4288     0.0739     0.0287  0.000e+00
      0.897    16.6444 260.049170    312.196    7.22507   74.26728 1.5101e+03     1.2840    72.5423     0.0706     0.0311  0.000e+00
      0.910    16.6517 260.139821    312.250    7.18211   73.83706 1.3130e+03     1.2968    72.3103     0.0758     0.0340  0.000e+00
      0.920    16.6541 260.230476    312.341    7.14341   73.44289 1.2922e+03     1.3169    71.9484     0.0818     0.0301  0.000e+00
      0.928    16.6590 259.988721    312.014    7.10537   73.05927 1.3433e+03     1.3346    71.6310     0.0799     0.0286  0.000e+00
      0.927    16.6655 260.230467    312.255    7.06533   72.65752 1.1738e+03     1.3292    71.7264     0.0780     0.0238  0.000e+00
      0.917    16.6700 260.472216    312.512    7.03030   72.30414 1.1914e+03     1.3118    72.0406     0.0761     0.0214  0.000e+00
      0.903    16.6965 260.049126    311.806    7.00034   72.03583 1.5660e+03     1.3084    72.1014     0.0867     0.0206  0.000e+00
      0.888    16.7398 259.656249    311.011    6.98981   71.99274 1.1680e+03     1.3133    72.0126     0.0999     0.0104  0.000e+00
      0.879    16.7816 259.414469    310.411    6.99581   72.11748 1.3826e+03     1.2878    72.4732     0.1113     0.0090  0.000e+00
      0.876    16.8143 259.233135    309.952    7.01667   72.38195 1.2886e+03     1.2953    72.3383     0.1044     0.0105  0.000e+00
      0.882    16.8296 258.840297    309.368    7.03148   72.55788 1.4076e+03     1.2825    72.5703     0.0984     0.0256  0.000e+00
      0.896    16.8261 258.054673    308.455    7.06384   72.88625 1.3512e+03     1.2880    72.4699     0.0916     0.0104  0.000e+00
      0.910    16.8142 257.873389    308.326    7.10385   73.28081 1.2789e+03     1.2847    72.5291     0.0893     0.0200  0.000e+00
      0.921    16.8049 258.568368    309.226    7.14864   73.72863 1.4867e+03     1.2999    72.2544     0.0874     0.0288  0.000e+00
      0.925    16.8014 258.568371    309.252    7.19387   74.18973 1.1986e+03     1.2946    72.3498     0.0890     0.0209  0.000e+00
      0.919    16.7916 258.296431    309.000    7.23620   74.61085 1.4713e+03     1.2995    72.2610     0.0871     0.0008  0.000e+00
      0.907    16.7802 258.417306    309.229    7.26903   74.93150 1.0813e+03     1.2951    72.3416     0.0817     0.0032  0.000e+00
      0.894    16.7773 258.296442    309.105    7.30322   75.27941 1.2877e+03     1.2910    72.4156     0.0768     0.0042  0.000e+00
      0.888    16.7828 258.054709    308.775    7.33882   75.65505 1.2632e+03     1.2944    72.3531     0.0783     0.0051  0.000e+00
      0.890    16.7999 257.027380    307.420    7.37560   76.06112 1.2334e+03     1.2963    72.3202     0.0784     0.0099  0.000e+00
      0.898    16.8066 256.090750    306.250    7.40233   76.34724 1.2897e+03     1.3042    72.1771     0.0822     0.0024  0.000e+00
      0.907    16.7937 256.030335    306.273    7.41004   76.40606 1.2643e+03     1.3104    72.0652     0.0907     0.0007  0.000e+00
      0.910    16.7746 256.423123    306.883    7.40853   76.36015 1.4490e+03     1.2975    72.2972     0.0865     0.0000  0.000e+00
      0.905    16.7606 257.450419    308.216    7.38052   76.04931 1.3911e+03     1.2953    72.3383     0.0826     0.0007  0.000e+00
      0.895    16.7394 257.087860    307.938    7.35678   75.77105 1.3892e+03     1.2894    72.4436     0.0826     0.0055  0.000e+00
      0.885    16.7259 256.936799    307.857    7.31310   75.29993 1.4940e+03     1.3108    72.0587     0.0816     0.0166  0.000e+00
      0.881    16.7285 256.725298    307.585    7.26268   74.78463 1.1898e+03     1.2850    72.5242     0.0864     0.0081  0.000e+00
      0.884    16.7324 256.453371    307.229    7.21270   74.27616 1.5170e+03     1.2943    72.3564     0.0918     0.0092  0.000e+00
      0.890    16.7226 256.241885    307.049    7.17476   73.87006 1.3858e+03     1.3070    72.1261     0.0916     0.0144  0.000e+00
      0.905    16.7065 255.516793    306.298    7.13785   73.46518 1.6309e+03     1.2987    72.2758     0.0890     0.0159  0.000e+00
      0.939    16.6927 255.305321    306.145    7.10619   73.11813 1.5787e+03     1.3098    72.0768     0.0912     0.0133  0.000e+00
      0.987    16.6853 255.456389    306.381    7.06688   72.70249 1.5425e+03     1.3055    72.1541     0.0901     0.0211  0.000e+00
      1.037    16.6792 256.030433    307.114    7.02863   72.29983 1.2699e+03     1.3038    72.1837     0.0885     0.0213  0.000e+00
      1.084    16.5929 256.332638    308.116    7.00601   71.93687 1.3523e+03     1.3237    71.8267     0.0961     0.0209  0.000e+00
      1.129    16.2363 256.635073    311.146    7.02552   71.59801 1.1032e+03     1.3267    71.7724     0.0958     0.0159  0.000e+00
      1.174    15.8921 255.789388    312.732    7.05240   71.34989 1.1525e+03     1.3219    71.8580     0.0913     0.0169  0.000e+00
      1.212    15.6429 255.366623    314.130    7.06875   71.13695 1.0918e+03     1.3284    71.7412     0.0850     0.0234  0.000e+00
      1.237    15.5248 255.517783    315.232    7.08250   71.09591 1.2265e+03     1.3260    71.7839     0.0823     0.0201  0.000e+00
      1.265    15.4719 255.034435    315.047    7.09694   71.16017 1.0349e+03     1.3239    71.8218     0.0819     0.0234  0.000e+00
      1.303    15.3631 254.913680    315.747    7.10511   71.07635 1.1703e+03     1.3268    71.7708     0.0829     0.0198  0.000e+00
      1.340    15.2143 254.792959    316.766    7.12572   71.05523 1.0683e+03     1.3342    71.6375     0.0841     0.0182  0.000e+00
      1.379    15.0916 253.554434    316.190    7.15031   71.11237 1.0674e+03     1.3275    71.7576     0.0907     0.0202  0.000e+00
      1.431    14.9704 249.114208    311.596    7.19015   71.32084 9.2887e+02     1.3386    71.5586     0.0907     0.0171  0.000e+00
      1.487    14.8197 244.282397    306.708    7.25563   71.73525 9.6768e+02     1.3413    71.5109     0.0892     0.0165  0.000e+00
      1.537    14.6787 241.595231    304.413    7.36426   72.58656 9.0281e+02     1.3279    71.7510     0.0895     0.0185  0.000e+00
      1.583    14.5705 240.206522    303.490    7.49128   73.66514 8.7117e+02     1.3430    71.4796     0.0902     0.0187  0.000e+00
      1.635    14.4846 237.882075    301.208    7.63431   74.93085 9.5351e+02     1.3370    71.5882     0.0945     0.0191  0.000e+00
      1.686    14.3884 234.652411    297.844    7.77722   76.17282 8.7225e+02     1.3326    71.6671     0.0953     0.0182  0.000e+00
      1.732    14.3195 233.777201    297.253    7.88556   77.11782 9.1752e+02     1.3406    71.5224     0.0987     0.0173  0.000e+00
      1.774    14.2786 233.475426    297.178    7.96563   77.83140 8.3903e+02     1.3553    71.2608     0.1073     0.0156  0.000e+00
      1.819    14.2340 232.358815    296.093    8.01578   78.24474 9.1929e+02     1.3396    71.5405     0.1086     0.0163  0.000e+00
      1.861    14.1731 231.000859    294.820    8.03539   78.33151 8.7886e+02     1.3356    71.6129     0.1081     0.0156  0.000e+00
      1.894    14.1289 232.208002    296.696    8.03138   78.21696 7.8996e+02     1.3417    71.5026     0.1117     0.0166  0.000e+00
      1.929    14.1184 230.638782    294.770    8.01902   78.07828 8.1606e+02     1.3400    71.5339     0.1056     0.0182  0.000e+00
      1.968    14.1118 230.216323    294.280    8.02114   78.08758 8.0807e+02     1.3453    71.4385     0.1114     0.0179  0.000e+00
      2.004    14.0843 231.332877    295.916    8.03759   78.20083 7.5415e+02     1.3484    71.3842     0.1181     0.0188  0.000e+00
      2.035    14.0646 232.932353    298.112    8.06312   78.41579 7.7606e+02     1.3490    71.3727     0.1260     0.0209  0.000e+00
      2.073    14.0659 231.574312    296.364    8.09036   78.68269 8.1262e+02     1.3594    71.1885     0.1406     0.0201  0.000e+00
      2.122    14.0614 229.522334    293.772    8.10995   78.86466 7.3479e+02     1.3494    71.3661     0.1379     0.0208  0.000e+00
      2.175    14.0340 228.104193    292.161    8.12798   78.99217 6.8927e+02     1.3538    71.2872     0.1316     0.0214  0.000e+00
      2.228    14.0026 227.319743    291.391    8.12906   78.94808 7.6295e+02     1.3503    71.3497     0.1300     0.0219  0.000e+00
      2.285    13.9745 226.565490    290.634    8.13253   78.93284 6.9438e+02     1.3542    71.2806     0.1332     0.0210  0.000e+00
      2.343    13.9454 225.298393    289.224    8.13197   78.87674 7.1330e+02     1.3489    71.3743     0.1357     0.0214  0.000e+00
      2.391    13.9160 227.108610    291.768    8.13171   78.82381 6.3364e+02     1.3846    70.7410     0.1318     0.0205  0.000e+00
      2.429    13.9069 231.906397    298.002    8.13130   78.80540 6.5630e+02     1.3801    70.8200     0.1341     0.0187  0.000e+00
      2.466    13.9163 233.656800    300.179    8.13276   78.83643 6.4623e+02     1.3707    70.9861     0.1376     0.0179  0.000e+00
      2.504    13.9154 234.471697    301.233    8.12167   78.72759 5.9480e+02     1.3839    70.7525     0.1387     0.0166  0.000e+00
      2.542    13.9104 234.562248    301.388    8.09158   78.42729 6.6911e+02     1.3858    70.7196     0.1385     0.0181  0.000e+00
      2.579    13.9090 235.407365    302.485    8.04100   77.93492 5.7174e+02     1.3777    70.8627     0.1421     0.0184  0.000e+00
      2.617    13.9341 236.252495    303.374    7.96841   77.27433 5.8722e+02     1.3732    70.9433     0.1512     0.0201  0.000e+00
      2.651    13.9812 238.606985    306.028    7.87528   76.45078 5.9899e+02     1.3913    70.6226     0.1517     0.0209  0.000e+00
      2.678    14.0694 240.810751    308.157    7.77127   75.58783 5.6994e+02     1.4082    70.3248     0.1541     0.0211  0.000e+00
      2.706    14.2182 241.444659    307.796    7.66040   74.75250 5.3482e+02     1.4084    70.3215     0.1540     0.0217  0.000e+00
      2.740    14.4641 241.595427    306.069    7.54539   74.02602 5.7689e+02     1.3917    70.6160     0.1641     0.0194  0.000e+00
      2.780    14.6755 241.746223    304.628    7.46333   73.55797 5.0771e+02     1.4146    70.2113     0.1710     0.0213  0.000e+00
      2.826    14.8244 241.021502    302.578    7.39575   73.12722 5.1228e+02     1.4146    70.2113     0.1736     0.0198  0.000e+00
      2.888    14.9075 237.610097    297.674    7.35753   72.87912 5.2320e+02     1.4100    70.2936     0.1785     0.0179  0.000e+00
      2.958    14.9142 234.078586    293.201    7.33962   72.71127 4.5315e+02     1.4059    70.3643     0.1761     0.0167  0.000e+00
      3.022    14.8971 232.539413    291.398    7.34024   72.69013 4.3467e+02     1.4308    69.9284     0.1805     0.0179  0.000e+00
      3.076    14.8151 231.996261    291.316    7.38046   72.95887 4.5180e+02     1.4196    70.1241     0.1952     0.0195  0.000e+00
      3.123    14.6659 231.754950    292.108    7.45317   73.43993 4.3843e+02     1.4148    70.2080     0.1927     0.0209  0.000e+00
      3.162    14.5449 232.932014    294.490    7.53976   74.09857 4.1409e+02     1.4302    69.9383     0.2016     0.0216  0.000e+00
      3.184    14.4866 237.308566    300.466    7.60519   74.64817 4.0845e+02     1.4275    69.9860     0.2084     0.0223  0.000e+00
      3.196    14.4900 238.697166    302.198    7.65980   75.19022 4.2411e+02     1.4568    69.4760     0.2059     0.0217  0.000e+00
      3.214    14.5163 239.300915    302.761    7.67164   75.34947 4.1973e+02     1.4219    70.0847     0.2142     0.0216  0.000e+00
      3.245    14.5939 238.183897    300.757    7.66390   75.40022 4.2396e+02     1.4288    69.9629     0.2048     0.0249  0.000e+00
      3.285    14.6721 237.187682    298.909    7.63358   75.22922 4.0681e+02     1.4461    69.6619     0.1973     0.0248  0.000e+00
      3.332    14.7154 235.980253    297.063    7.59960   74.96434 3.8538e+02     1.4420    69.7326     0.1902     0.0256  0.000e+00
      3.388    14.7244 234.169284    294.716    7.56848   74.67132 3.7364e+02     1.4187    70.1406     0.1901     0.0247  0.000e+00
      3.447    14.6864 232.267972    292.603    7.55279   74.45476 3.6868e+02     1.4372    69.8165     0.1964     0.0238  0.000e+00
      3.504    14.6083 231.513580    292.228    7.55872   74.38686 3.5614e+02     1.4660    69.3148     0.1972     0.0226  0.000e+00
      3.555    14.4824 231.423143    293.046    7.58915   74.48226 3.3554e+02     1.4577    69.4596     0.1907     0.0219  0.000e+00
      3.606    14.3695 231.121457    293.503    7.63783   74.77599 3.2123e+02     1.4521    69.5566     0.1962     0.0220  0.000e+00
      3.655    14.2871 230.910282    293.850    7.68886   75.14023 3.1486e+02     1.4513    69.5714     0.2074     0.0216  0.000e+00
      3.704    14.2187 231.453522    295.055    7.73108   75.44032 3.1238e+02     1.4666    69.3049     0.2126     0.0214  0.000e+00
      3.745    14.1770 233.083204    297.449    7.75165   75.57253 3.1096e+02     1.4653    69.3280     0.2070     0.0235  0.000e+00
      3.786    14.1871 234.471518    299.143    7.75166   75.58977 3.0096e+02     1.4470    69.6454     0.2094     0.0225  0.000e+00
      3.827    14.2109 234.894052    299.500    7.73076   75.42527 2.9561e+02     1.4427    69.7211     0.2097     0.0216  0.000e+00
      3.866    14.2172 236.010831    300.876    7.69187   75.05641 2.8500e+02     1.4283    69.9712     0.2053     0.0225  0.000e+00
      3.903    14.2154 237.037119    302.199    7.65096   74.65454 2.7974e+02     1.4458    69.6668     0.1968     0.0238  0.000e+00
      3.937    14.2504 237.882308    303.005    7.58892   74.10614 2.7579e+02     1.4419    69.7343     0.2052     0.0233  0.000e+00
      3.976    14.3375 238.727490    303.408    7.51562   73.53019 2.7608e+02     1.4854    68.9809     0.2146     0.0230  0.000e+00
      4.013    14.4515 239.331172    303.297    7.45586   73.12709 2.7458e+02     1.4417    69.7376     0.2233     0.0232  0.000e+00
      4.049    14.5752 239.663158    302.768    7.40071   72.78166 2.6584e+02     1.4475    69.6372     0.2226     0.0230  0.000e+00
      4.086    14.7020 239.874386    302.066    7.36361   72.61645 2.6144e+02     1.4652    69.3296     0.2212     0.0230  0.000e+00
      4.133    14.8420 239.240305    300.209    7.33161   72.52014 2.6135e+02     1.4673    69.2934     0.2245     0.0223  0.000e+00
      4.189    14.9526 237.911957    297.716    7.31921   72.57025 2.6176e+02     1.4444    69.6915     0.2424     0.0214  0.000e+00
      4.249    15.0177 237.006323    296.100    7.31398   72.62004 2.5455e+02     1.4391    69.7836     0.2374     0.0210  0.000e+00
      4.309    15.0487 236.342230    295.042    7.32020   72.73021 2.4606e+02     1.4355    69.8461     0.2566     0.0215  0.000e+00
      4.369    15.0479 235.346166    293.804    7.32593   72.78565 2.4114e+02     1.4834    69.0154     0.2651     0.0225  0.000e+00
      4.421    15.0158 235.346192    294.040    7.33629   72.83817 2.3832e+02     1.4654    69.3263     0.2485     0.0241  0.000e+00
      4.458    14.9770 236.885618    296.251    7.35016   72.91514 2.3491e+02     1.4594    69.4300     0.2368     0.0244  0.000e+00
      4.484    14.9587 238.123268    297.935    7.37002   73.08375 2.3248e+02     1.4879    68.9365     0.2630     0.0240  0.000e+00
      4.512    14.9523 239.300605    299.456    7.38921   73.26419 2.3130e+02     1.4738    69.1799     0.2501     0.0235  0.000e+00
      4.537    14.9693 239.964757    300.159    7.39040   73.30316 2.2775e+02     1.5048    68.6469     0.2383     0.0247  0.000e+00
      4.564    14.9973 240.206256    300.251    7.39801   73.42288 2.2433e+02     1.4773    69.1207     0.2640     0.0238  0.000e+00
      4.595    15.0544 240.176022    299.786    7.38717   73.40550 2.1961e+02     1.4626    69.3740     0.2628     0.0240  0.000e+00
      4.637    15.1245 239.602364    298.547    7.37585   73.40357 2.1322e+02     1.4922    68.8624     0.2528     0.0230  0.000e+00
      4.685    15.1739 239.270248    297.766    7.35743   73.29795 2.1065e+02     1.4405    69.7590     0.2893     0.0221  0.000e+00
      4.731    15.2108 239.602299    297.906    7.34310   73.21335 2.0640e+02     1.4781    69.1059     0.2728     0.0220  0.000e+00
      4.780    15.2389 239.330577    297.360    7.32944   73.12129 2.0033e+02     1.4669    69.3000     0.2632     0.0221  0.000e+00
      4.838    15.2526 238.002300    295.609    7.33844   73.23225 1.9395e+02     1.4802    69.0697     0.2452     0.0236  0.000e+00
      4.895    15.2468 237.489135    295.014    7.34272   73.26573 1.8917e+02     1.4669    69.3000     0.2390     0.0237  0.000e+00
      4.950    15.2357 237.489144    295.096    7.35635   73.38424 1.8425e+02     1.4691    69.2622     0.2490     0.0230  0.000e+00
      5.002    15.2272 237.338222    294.970    7.37159   73.52271 1.7990e+02     1.4768    69.1289     0.2451     0.0227  0.000e+00
      5.053    15.2194 237.308043    294.990    7.38005   73.59484 1.7611e+02     1.4980    68.7637     0.2357     0.0227  0.000e+00
      5.099    15.2113 237.911777    295.800    7.38586   73.64001 1.7274e+02     1.4566    69.4793     0.2428     0.0225  0.000e+00
      5.135    15.2076 239.179666    297.404    7.37825   73.55861 1.7048e+02     1.4549    69.5089     0.2677     0.0221  0.000e+00
      5.165    15.2066 240.115536    298.575    7.35718   73.34731 1.6955e+02     1.4477    69.6339     0.2595     0.0222  0.000e+00
      5.193    15.2140 240.326862    298.783    7.32100   72.99834 1.6854e+02     1.5147    68.4775     0.2531     0.0215  0.000e+00
      5.218    15.2385 240.447605    298.751    7.27763   72.60411 1.6774e+02     1.4686    69.2704     0.2444     0.0207  0.000e+00
      5.248    15.2824 240.417381    298.388    7.23397   72.23646 1.6598e+02     1.4678    69.2852     0.2476     0.0207  0.000e+00
      5.284    15.3338 240.387151    297.970    7.19434   71.91996 1.6341e+02     1.4883    68.9299     0.2557     0.0220  0.000e+00
      5.331    15.3915 239.964446    297.021    7.16206   71.68578 1.6045e+02     1.4743    69.1717     0.2498     0.0221  0.000e+00
      5.382    15.4276 239.541767    296.233    7.13520   71.47201 1.5748e+02     1.4643    69.3444     0.2918     0.0230  0.000e+00
      5.435    15.4287 239.239878    295.851    7.13434   71.46512 1.5496e+02     1.4937    68.8378     0.3199     0.0238  0.000e+00
      5.487    15.4206 239.270074    295.948    7.13727   71.48199 1.5226e+02     1.4708    69.2326     0.2918     0.0248  0.000e+00
      5.537    15.4153 239.421023    296.174    7.14277   71.52906 1.4968e+02     1.4703    69.2408     0.2728     0.0255  0.000e+00
      5.584    15.4140 239.843676    296.707    7.15273   71.62679 1.4720e+02     1.4832    69.0187     0.2788     0.0259  0.000e+00
      5.628    15.4155 240.447476    297.442    7.15297   71.63168 1.4464e+02     1.4853    68.9825     0.2988     0.0256  0.000e+00
      5.673    15.4151 240.900339    298.006    7.14377   71.53907 1.4222e+02     1.4800    69.0730     0.2869     0.0248  0.000e+00
      5.719    15.4134 241.292830    298.503    7.12206   71.31928 1.3964e+02     1.4669    69.3000     0.2855     0.0248  0.000e+00
      5.765    15.4189 241.685322    298.949    7.09651   71.07176 1.3859e+02     1.4671    69.2967     0.2842     0.0228  0.000e+00
      5.811    15.4377 242.289163    299.556    7.05380   70.67264 1.3596e+02     1.4897    68.9068     0.2908     0.0234  0.000e+00
      5.851    15.4624 243.376126    300.716    7.01460   70.31725 1.3378e+02     1.4782    69.1042     0.2811     0.0228  0.000e+00
      5.886    15.4860 244.583931    302.032    6.97951   70.00131 1.3175e+02     1.5056    68.6321     0.2905     0.0211  0.000e+00
      5.915    15.5114 245.580419    303.073    6.94783   69.72154 1.2995e+02     1.4913    68.8789     0.2865     0.0218  0.000e+00
      5.941    15.5571 246.274947    303.587    6.92893   69.59997 1.2868e+02     1.4940    68.8328     0.2993     0.0222  0.000e+00
      5.971    15.6215 246.637286    303.552    6.92946   69.70105 1.2771e+02     1.4937    68.8378     0.3015     0.0230  0.000e+00
      6.006    15.6932 246.848626    303.276    6.94419   69.95620 1.2642e+02     1.5022    68.6913     0.3090     0.0237  0.000e+00
      6.048    15.7527 246.939179    302.944    6.96683   70.27331 1.2439e+02     1.5095    68.5663     0.3051     0.0254  0.000e+00
      6.100    15.7897 246.002976    301.522    6.98908   70.55306 1.2136e+02     1.5119    68.5252     0.2783     0.0264  0.000e+00
      6.159    15.7996 243.919377    298.896    7.00392   70.71719 1.1854e+02     1.5292    68.2291     0.2921     0.0256  0.000e+00
      6.220    15.7848 242.802188    297.635    7.01607   70.81721 1.1617e+02     1.5233    68.3294     0.2911     0.0252  0.000e+00
      6.276    15.7615 242.802208    297.805    7.02550   70.87722 1.1460e+02     1.5267    68.2719     0.2762     0.0247  0.000e+00
      6.327    15.7471 243.164550    298.355    7.02560   70.85672 1.1227e+02     1.5294    68.2258     0.2796     0.0242  0.000e+00
      6.374    15.7445 244.402559    299.893    7.03029   70.90039 1.1010e+02     1.5101    68.5548     0.2856     0.0237  0.000e+00
      6.413    15.7458 246.425802    302.366    7.03365   70.93674 1.0811e+02     1.5364    68.1057     0.2976     0.0227  0.000e+00
      6.453    15.7398 246.878799    302.967    7.04345   71.02658 1.0628e+02     1.5307    68.2028     0.3037     0.0233  0.000e+00
      6.494    15.7345 247.482809    303.747    7.06245   71.21041 1.0476e+02     1.5222    68.3492     0.2967     0.0231  0.000e+00
      6.530    15.7490 248.177425    304.491    7.08565   71.46653 1.0315e+02     1.5609    67.6912     0.2760     0.0231  0.000e+00
      6.562    15.7649 248.781454    305.113    7.11726   71.80980 1.0176e+02     1.5121    68.5219     0.2795     0.0231  0.000e+00
      6.590    15.7977 248.992847    305.127    7.14981   72.18870 1.0023e+02     1.5236    68.3245     0.2788     0.0230  0.000e+00
      6.621    15.8442 249.204231    305.039    7.18308   72.59620 9.9146e+01     1.4948    68.8180     0.3018     0.0233  0.000e+00
      6.653    15.9371 249.415580    304.604    7.20115   72.92262 9.7658e+01     1.5181    68.4183     0.3515     0.0225  0.000e+00
      6.693    16.0219 249.355105    303.901    7.21593   73.20386 9.6514e+01     1.5086    68.5811     0.3487     0.0225  0.000e+00
      6.741    16.0722 249.173846    303.308    7.21729   73.29566 9.5016e+01     1.4978    68.7670     0.3333     0.0227  0.000e+00
      6.795    16.1028 248.569770    302.348    7.20325   73.20024 9.2950e+01     1.5170    68.4380     0.3157     0.0233  0.000e+00
      6.854    16.1140 247.573114    301.053    7.19188   73.10176 9.0833e+01     1.5174    68.4314     0.3153     0.0240  0.000e+00
      6.911    16.1026 247.361720    300.879    7.16323   72.79295 8.8391e+01     1.5088    68.5778     0.2946     0.0230  0.000e+00
      6.962    16.0845 248.569789    302.482    7.16218   72.75477 8.6621e+01     1.5023    68.6897     0.2922     0.0231  0.000e+00
      7.006    16.0785 248.932224    302.968    7.13163   72.43522 8.5321e+01     1.5043    68.6552     0.3076     0.0228  0.000e+00
      7.044    16.0577 249.113459    303.342    7.14263   72.51505 8.4129e+01     1.5333    68.1584     0.2902     0.0240  0.000e+00
      7.076    16.0418 249.475912    303.900    7.15853   72.65220 8.3480e+01     1.5520    67.8409     0.2725     0.0238  0.000e+00
      7.107    16.0531 249.596718    303.964    7.16488   72.73405 8.2473e+01     1.5156    68.4610     0.2590     0.0240  0.000e+00
      7.139    16.0805 249.777919    303.982    7.19298   73.06174 8.1607e+01     1.5365    68.1041     0.2675     0.0249  0.000e+00
      7.174    16.1409 249.838279    303.609    7.22785   73.50977 8.0439e+01     1.5174    68.4298     0.2679     0.0248  0.000e+00
      7.213    16.1926 249.898646    303.301    7.25944   73.91179 7.9861e+01     1.5058    68.6288     0.2612     0.0245  0.000e+00
      7.256    16.2300 249.898617    303.025    7.28065   74.18640 7.8400e+01     1.5287    68.2373     0.2508     0.0240  0.000e+00
      7.304    16.2588 249.777779    302.668    7.30417   74.47112 7.6884e+01     1.5244    68.3114     0.2515     0.0227  0.000e+00
      7.350    16.2847 249.777759    302.478    7.32735   74.74848 7.5358e+01     1.4917    68.8723     0.2690     0.0222  0.000e+00
      7.395    16.3056 249.777743    302.325    7.35395   75.05285 7.3979e+01     1.5096    68.5647     0.2659     0.0221  0.000e+00
      7.439    16.3226 249.838138    302.273    7.37555   75.30025 7.2497e+01     1.5113    68.5351     0.2645     0.0231  0.000e+00
      7.476    16.3332 249.898538    302.269    7.40274   75.59486 7.1296e+01     1.5056    68.6321     0.2943     0.0228  0.000e+00
      7.512    16.3312 249.989153    302.393    7.42093   75.77735 7.0275e+01     1.5017    68.6996     0.3243     0.0230  0.000e+00
      7.544    16.3217 250.109979    302.609    7.43755   75.93192 6.9329e+01     1.5072    68.6058     0.3194     0.0233  0.000e+00
      7.581    16.3088 250.170399    302.776    7.45235   76.06231 6.7989e+01     1.4866    68.9595     0.3046     0.0236  0.000e+00
      7.623    16.3236 250.140184    302.632    7.45888   76.15270 6.6697e+01     1.5035    68.6683     0.2837     0.0237  0.000e+00
      7.667    16.3426 250.170374    302.529    7.44155   76.00624 6.5201e+01     1.5088    68.5778     0.2719     0.0243  0.000e+00
      7.717    16.3591 250.109953    302.335    7.43100   75.92483 6.3614e+01     1.5054    68.6371     0.2707     0.0241  0.000e+00
      7.774    16.3690 249.777700    301.861    7.40944   75.72030 6.2670e+01     1.5046    68.6502     0.2631     0.0239  0.000e+00
      7.832    16.3656 249.838112    301.959    7.38458   75.46082 6.1006e+01     1.5118    68.5268     0.2722     0.0243  0.000e+00
      7.880    16.3570 249.838120    302.022    7.36588   75.25607 5.9637e+01     1.5282    68.2456     0.2956     0.0233  0.000e+00
      7.919    16.3434 249.687113    301.939    7.34716   75.04322 5.8514e+01     1.5526    67.8310     0.3114     0.0230  0.000e+00
      7.954    16.3169 249.656931    302.096    7.33931   74.92120 5.7493e+01     1.5269    68.2686     0.3002     0.0238  0.000e+00
      7.984    16.2858 249.626753    302.287    7.33916   74.87059 5.6670e+01     1.5073    68.6042     0.3204     0.0241  0.000e+00
      8.011    16.2780 249.596557    302.307    7.35870   75.05757 5.6035e+01     1.4974    68.7736     0.3024     0.0249  0.000e+00
      8.038    16.2881 249.536142    302.160    7.38556   75.34754 5.5437e+01     1.5011    68.7094     0.2765     0.0247  0.000e+00
      8.068    16.2987 249.475727    302.009    7.42136   75.72971 5.4652e+01     1.5019    68.6963     0.2769     0.0240  0.000e+00
      8.105    16.3161 249.113275    301.444    7.44004   75.94815 5.3586e+01     1.5113    68.5351     0.2712     0.0240  0.000e+00
      8.148    16.3294 248.811238    300.981    7.45675   76.13996 5.2540e+01     1.5066    68.6157     0.3142     0.0237  0.000e+00
      8.194    16.3359 248.569615    300.642    7.45991   76.18253 5.1225e+01     1.5116    68.5301     0.2902     0.0237  0.000e+00
      8.247    16.3405 248.358198    300.353    7.45910   76.18163 5.0616e+01     1.5053    68.6387     0.2802     0.0246  0.000e+00
      8.301    16.3423 248.116584    300.047    7.44873   76.07854 4.9245e+01     1.5003    68.7242     0.2689     0.0238  0.000e+00
      8.353    16.3435 247.814571    299.674    7.43086   75.89786 4.8139e+01     1.4648    69.3362     0.2625     0.0240  0.000e+00
      8.399    16.3459 247.512562    299.291    7.42107   75.80163 4.7133e+01     1.4905    68.8920     0.2459     0.0237  0.000e+00
      8.436    16.3410 247.331364    299.107    7.40517   75.63133 4.6270e+01     1.5224    68.3459     0.2620     0.0244  0.000e+00
      8.473    16.3204 247.572985    299.549    7.40562   75.60306 4.5479e+01     1.5059    68.6272     0.2796     0.0251  0.000e+00
      8.510    16.2894 247.633413    299.847    7.41981   75.69854 4.4740e+01     1.5277    68.2538     0.3017     0.0231  0.000e+00
      8.546    16.2821 247.482416    299.717    7.45222   76.01744 4.3959e+01     1.5146    68.4791     0.3255     0.0219  0.000e+00
      8.584    16.2786 246.878416    299.011    7.47310   76.22468 4.3116e+01     1.4954    68.8081     0.3105     0.0221  0.000e+00
      8.626    16.2788 246.063040    298.022    7.48811   76.37785 4.2185e+01     1.5324    68.1748     0.3092     0.0209  0.000e+00
      8.666    16.2813 244.915526    296.614    7.49286   76.43010 4.1332e+01     1.4964    68.7900     0.2827     0.0210  0.000e+00
      8.701    16.2836 243.949247    295.427    7.48825   76.38640 4.0711e+01     1.5017    68.6996     0.2596     0.0211  0.000e+00
      8.732    16.2716 243.435941    294.891    7.47215   76.20278 4.0184e+01     1.5383    68.0745     0.2422     0.0223  0.000e+00
      8.766    16.2211 243.164231    294.923    7.45915   75.98907 3.9601e+01     1.5172    68.4347     0.2344     0.0223  0.000e+00
      8.802    16.1747 243.043491    295.109    7.45237   75.84557 3.8862e+01     1.5114    68.5334     0.2325     0.0232  0.000e+00
      8.840    16.1567 242.892536    295.055    7.45068   75.79947 3.8177e+01     1.4874    68.9463     0.2706     0.0227  0.000e+00
      8.884    16.1479 242.801962    295.008    7.46001   75.88031 3.7444e+01     1.4963    68.7917     0.3023     0.0227  0.000e+00
      8.934    16.1407 242.741581    294.986    7.47317   76.00246 3.6616e+01     1.5062    68.6223     0.2911     0.0233  0.000e+00
      8.986    16.1339 242.922751    295.255    7.50058   76.27048 3.5819e+01     1.5011    68.7094     0.2638     0.0227  0.000e+00
      9.036    16.1266 243.164311    295.601    7.53675   76.62637 3.5125e+01     1.4976    68.7703     0.2708     0.0223  0.000e+00
      9.083    16.1189 242.801989    295.216    7.56296   76.88031 3.4482e+01     1.4931    68.8476     0.2814     0.0231  0.000e+00
      9.128    16.1111 242.318901    294.685    7.58991   77.14135 3.3867e+01     1.5028    68.6815     0.2618     0.0243  0.000e+00
      9.170    16.1049 242.016978    294.362    7.61193   77.35489 3.3323e+01     1.4685    69.2720     0.2808     0.0237  0.000e+00
      9.211    16.0966 242.379301    294.862    7.63467   77.57260 3.2984e+01     1.4834    69.0154     0.2744     0.0238  0.000e+00
      9.249    16.0814 242.500087    295.118    7.66153   77.82050 3.2500e+01     1.4732    69.1914     0.2717     0.0230  0.000e+00
      9.287    16.0598 241.896245    294.538    7.69408   78.11505 3.1994e+01     1.5011    68.7094     0.2802     0.0222  0.000e+00
      9.321    16.0512 241.020688    293.534    7.71579   78.32097 3.1518e+01     1.4829    69.0236     0.2596     0.0237  0.000e+00
      9.354    16.0481 240.416875    292.820    7.71791   78.33726 3.1094e+01     1.4818    69.0417     0.3313     0.0251  0.000e+00
      9.385    16.0335 239.813089    292.189    7.71889   78.32286 3.0691e+01     1.4795    69.0812     0.3342     0.0260  0.000e+00
      9.413    16.0040 239.179143    291.626    7.72102   78.29524 3.0256e+01     1.4579    69.4563     0.3311     0.0260  0.000e+00
      9.442    15.9767 238.545214    291.047    7.72455   78.28563 2.9901e+01     1.4885    68.9266     0.2989     0.0253  0.000e+00
      9.476    15.9543 237.941487    290.469    7.74070   78.41197 2.9529e+01     1.5232    68.3311     0.3165     0.0241  0.000e+00
      9.519    15.9387 237.609448    290.174    7.77221   78.70489 2.8957e+01     1.4981    68.7621     0.3023     0.0243  0.000e+00
      9.568    15.9272 237.609458    290.256    7.81585   79.12748 2.8326e+01     1.5031    68.6749     0.3087     0.0234  0.000e+00
      9.622    15.9191 237.609466    290.314    7.86563   79.61769 2.7709e+01     1.4946    68.8213     0.3116     0.0234  0.000e+00
      9.680    15.9136 237.730217    290.500    7.91458   80.10391 2.7427e+01     1.4838    69.0072     0.3391     0.0228  0.000e+00
      9.743    15.9095 238.484897    291.452    7.95667   80.52311 2.6744e+01     1.4718    69.2145     0.3334     0.0227  0.000e+00
      9.806    15.9057 238.967909    292.069    7.97807   80.73333 2.5982e+01     1.4814    69.0500     0.2983     0.0221  0.000e+00
      9.861    15.9023 237.700043    290.544    7.97858   80.73229 2.5456e+01     1.5108    68.5433     0.2721     0.0220  0.000e+00
      9.907    15.8981 237.549116    290.389    7.95819   80.51878 2.4932e+01     1.4904    68.8937     0.2771     0.0223  0.000e+00
      9.945    15.8927 236.673739    289.357    7.91278   80.04985 2.4531e+01     1.4730    69.1947     0.2576     0.0218  0.000e+00
      9.968    15.8841 236.070056    288.679    7.86163   79.51779 2.4328e+01     1.4609    69.4036     0.2434     0.0217  0.000e+00
      9.984    15.8566 235.828606    288.578    7.83263   79.17812 2.4238e+01     1.4838    69.0072     0.2663     0.0216  0.000e+00
     10.001    15.8214 235.285333    288.162    7.82444   79.03594 2.4098e+01     1.4751    69.1585     0.2830     0.0228  0.000e+00
     10.023    15.8004 234.711882    287.607    7.83117   79.06851 2.3865e+01     1.4510    69.5764     0.2909     0.0238  0.000e+00
     10.050    15.7843 234.168624    287.055    7.84256   79.15625 2.3614e+01     1.4698    69.2490     0.3244     0.0229  0.000e+00
     10.086    15.7677 233.987550    286.950    7.87113   79.41646 2.3258e+01     1.4806    69.0631     0.3088     0.0219  0.000e+00
     10.134    15.7476 234.289379    287.462    7.91006   79.77521 2.2985e+01     1.5001    68.7275     0.3152     0.0221  0.000e+00
     10.191    15.7308 234.410120    287.728    7.96216   80.27207 2.2476e+01     1.4919    68.8690     0.3125     0.0219  0.000e+00
     10.245    15.7231 233.836683    287.079    7.99969   80.63696 2.1993e+01     1.4698    69.2490     0.2827     0.0334  0.000e+00
     10.297    15.7226 234.138495    287.453    8.01415   80.78181 2.1609e+01     1.4675    69.2901     0.2752     0.0324  0.000e+00
     10.353    15.7192 233.987593    287.292    8.01714   80.80614 2.1178e+01     1.4631    69.3658     0.2765     0.0301  0.000e+00
     10.405    15.7156 233.565066    286.798    8.01148   80.74280 2.0768e+01     1.4573    69.4661     0.2583     0.0267  0.000e+00
     10.453    15.7100 233.112369    286.282    7.98797   80.49615 2.0430e+01     1.5285    68.2406     0.2766     0.0241  0.000e+00
     10.492    15.6980 232.931301    286.144    7.95589   80.15233 2.0164e+01     1.5169    68.4397     0.2766     0.0237  0.000e+00
     10.526    15.6778 233.052036    286.435    7.91974   79.75379 1.9931e+01     1.4790    69.0911     0.3007     0.0228  0.000e+00
     10.557    15.6545 233.474575    287.118    7.90018   79.51748 1.9728e+01     1.4726    69.2013     0.3153     0.0222  0.000e+00
     10.582    15.6396 234.048021    287.929    7.89000   79.38988 1.9572e+01     1.4791    69.0894     0.2901     0.0211  0.000e+00
     10.609    15.6346 234.078206    288.002    7.88124   79.29333 1.9369e+01     1.4774    69.1190     0.2932     0.0215  0.000e+00
     10.642    15.6374 234.108386    288.019    7.86300   79.11464 1.9229e+01     1.5044    68.6535     0.3181     0.0211  0.000e+00
     10.678    15.6429 234.048020    287.906    7.84198   78.91231 1.8997e+01     1.4829    69.0236     0.2909     0.0209  0.000e+00
     10.719    15.6466 233.927294    287.731    7.80758   78.57226 1.8674e+01     1.4706    69.2358     0.2980     0.0211  0.000e+00
     10.764    15.6493 233.927293    287.712    7.76788   78.17727 1.8318e+01     1.5151    68.4693     0.3028     0.0217  0.000e+00
     10.812    15.6424 233.836756    287.649    7.72175   77.70154 1.7947e+01     1.4913    68.8789     0.3043     0.0211  0.000e+00
     10.861    15.6288 233.987673    287.931    7.68836   77.34326 1.7580e+01     1.4891    68.9167     0.3111     0.0201  0.000e+00
     10.909    15.6174 234.048045    288.086    7.63618   76.79961 1.7223e+01     1.4788    69.0944     0.3442     0.0208  0.000e+00
     10.957    15.6083 233.927328    288.003    7.62032   76.62518 1.6862e+01     1.4831    69.0203     0.3426     0.0214  0.000e+00
     11.001    15.6009 233.836792    287.943    7.60629   76.47201 1.6540e+01     1.5126    68.5120     0.3256     0.0243  0.000e+00
     11.043    15.5955 233.534991    287.610    7.61413   76.54185 1.6231e+01     1.4939    68.8345     0.3040     0.0241  0.000e+00
     11.085    15.5937 233.203011    287.214    7.63585   76.75717 1.5862e+01     1.4748    69.1635     0.2896     0.0253  0.000e+00
     11.128    15.5925 232.810677    286.739    7.66493   77.04751 1.5540e+01     1.4794    69.0845     0.2897     0.0241  0.000e+00
     11.164    15.5886 232.720143    286.655    7.69899   77.38336 1.5336e+01     1.4885    68.9266     0.2712     0.0227  0.000e+00
     11.196    15.5777 232.750331    286.769    7.72174   77.59405 1.5003e+01     1.5118    68.5268     0.2582     0.0217  0.000e+00
     11.227    15.5543 232.689991    286.860    7.74504   77.78928 1.4574e+01     1.4748    69.1635     0.2524     0.0220  0.000e+00
     11.259    15.5353 232.810723    287.144    7.77519   78.06038 1.4098e+01     1.4876    68.9430     0.2798     0.0220  0.000e+00
     11.289    15.5211 232.569301    286.947    7.78801   78.16521 1.3593e+01     1.4842    69.0006     0.2994     0.0228  0.000e+00
     11.325    15.5054 232.176990    286.574    7.83752   78.63570 1.3088e+01     1.5042    68.6568     0.3116     0.0233  0.000e+00
     11.368    15.4890 231.784687    286.206    7.88473   79.08155 1.2489e+01     1.4804    69.0664     0.3094     0.0236  0.000e+00
     11.413    15.4775 231.633808    286.100    7.94194   79.63583 1.1938e+01     1.4892    68.9151     0.2853     0.0221  0.000e+00
     11.462    15.4688 231.422573    285.901    7.99370   80.13978 1.1431e+01     1.4857    68.9759     0.2790     0.0215  0.000e+00
     11.515    15.4560 231.181166    285.693    8.03999   80.58163 1.0986e+01     1.4638    69.3543     0.3242     0.0214  0.000e+00
     11.572    15.4429 231.000116    285.562    8.07245   80.88422 1.0634e+01     1.4756    69.1503     0.3446     0.0208  0.000e+00
     11.628    15.4309 230.879419    285.497    8.08616   81.00088 1.0412e+01     1.5081    68.5894     0.3351     0.0214  0.000e+00
     11.680    15.4200 230.728546    285.388    8.08721   80.99230 1.0314e+01     1.4742    69.1733     0.2968     0.0224  0.000e+00
     11.725    15.4102 230.456969    285.121    8.06291   80.73192 1.0269e+01     1.4514    69.5698     0.2779     0.0228  0.000e+00
     11.761    15.3984 230.275924    284.980    8.03356   80.41786 1.0320e+01     1.4736    69.1848     0.2985     0.0220  0.000e+00
     11.791    15.3711 230.215594    285.098    8.00053   80.04035 1.0428e+01     1.4751    69.1585     0.3114     0.0223  0.000e+00
     11.815    15.3370 229.521592    284.479    7.98165   79.79289 1.0572e+01     1.4643    69.3444     0.2855     0.0219  0.000e+00
     11.832    15.3125 228.978474    283.979    7.97033   79.63772 1.0763e+01     1.4536    69.5303     0.3007     0.0217  0.000e+00
     11.855    15.2810 228.857803    284.051    7.96550   79.53563 1.0893e+01     1.4714    69.2227     0.2988     0.0231  0.000e+00
     11.892    15.2363 228.797490    284.291    7.95461   79.35072 1.0860e+01     1.5021    68.6930     0.3048     0.0230  0.000e+00
     11.940    15.2076 228.857860    284.569    7.93721   79.12840 1.0805e+01     1.4780    69.1075     0.2740     0.0237  0.000e+00
     11.986    15.1917 229.310482    285.245    7.91143   78.84459 1.0696e+01     1.4681    69.2786     0.3072     0.0240  0.000e+00
     12.039    15.1946 229.280307    285.187    7.87907   78.52685 1.0516e+01     1.4744    69.1700     0.3027     0.0224  0.000e+00
     12.097    15.2038 229.069083    284.859    7.84065   78.15943 1.0340e+01     1.4736    69.1832     0.3033     0.0214  0.000e+00
     12.152    15.2097 229.099253    284.855    7.80687   77.83250 1.0140e+01     1.4736    69.1832     0.3266     0.0208  0.000e+00
     12.199    15.2067 228.918213    284.651    7.78542   77.61367 9.9691e+00     1.4876    68.9430     0.3126     0.0214  0.000e+00
     12.243    15.2039 228.646654    284.333    7.77657   77.52060 9.7800e+00     1.4985    68.7555     0.2751     0.0207  0.000e+00
     12.285    15.1967 228.103547    283.709    7.77943   77.53696 9.5859e+00     1.4712    69.2260     0.2599     0.0209  0.000e+00
     12.323    15.1903 227.620797    283.153    7.80300   77.76120 9.4475e+00     1.4692    69.2605     0.2564     0.0195  0.000e+00
     12.355    15.1878 227.228569    282.683    7.83373   78.06308 9.3028e+00     1.4890    68.9184     0.2403     0.0204  0.000e+00
     12.384    15.1776 227.469949    283.055    7.86835   78.39095 9.1879e+00     1.4679    69.2819     0.2368     0.0200  0.000e+00
     12.414    15.1540 227.801858    283.635    7.90479   78.71411 9.0729e+00     1.4602    69.4168     0.2775     0.0205  0.000e+00
     12.441    15.1339 227.862218    283.852    7.91860   78.81752 8.9450e+00     1.4527    69.5467     0.3346     0.0214  0.000e+00
     12.470    15.1284 227.711362    283.703    7.91372   78.75966 8.8141e+00     1.4489    69.6125     0.3169     0.0215  0.000e+00
     12.505    15.1234 227.469992    283.437    7.89561   78.57095 8.6360e+00     1.4731    69.1931     0.2856     0.0217  0.000e+00
     12.545    15.1176 227.288968    283.253    7.89230   78.52800 8.5429e+00     1.4641    69.3477     0.2877     0.0223  0.000e+00
     12.593    15.1094 227.288975    283.310    7.89676   78.55867 8.3257e+00     1.4947    68.8197     0.2780     0.0218  0.000e+00
     12.645    15.0988 227.500185    283.649    7.91546   78.72675 8.1298e+00     1.4626    69.3740     0.2747     0.0217  0.000e+00
     12.699    15.0873 227.560538    283.806    7.94674   79.01831 7.9272e+00     1.4865    68.9611     0.2750     0.0217  0.000e+00
     12.756    15.0748 227.590720    283.932    7.99540   79.48072 7.7475e+00     1.4790    69.0911     0.2791     0.0217  0.000e+00
     12.813    15.0641 227.620901    284.046    8.04074   79.91300 7.5745e+00     1.4902    68.8970     0.2624     0.0211  0.000e+00
     12.866    15.0546 227.741597    284.263    8.08476   80.33416 7.4555e+00     1.4971    68.7785     0.2464     0.0224  0.000e+00
     12.912    15.0471 227.560572    284.091    8.11607   80.63212 7.3450e+00     1.4800    69.0730     0.2428     0.0213  0.000e+00
     12.951    15.0408 227.108005    283.570    8.12106   80.67076 7.2747e+00     1.4685    69.2720     0.2927     0.0209  0.000e+00
     12.983    15.0352 226.866642    283.308    8.11288   80.57965 7.2360e+00     1.4784    69.1010     0.3075     0.0203  0.000e+00
     13.011    15.0173 226.504610    282.983    8.11321   80.55182 7.2360e+00     1.4754    69.1536     0.3068     0.0208  0.000e+00
     13.034    14.9927 225.931401    282.440    8.11376   80.51437 7.2373e+00     1.4694    69.2572     0.2909     0.0204  0.000e+00
     13.056    14.9726 225.509049    282.054    8.11161   80.45794 7.2386e+00     1.4785    69.0993     0.2916     0.0211  0.000e+00
     13.082    14.9361 225.539245    282.350    8.10171   80.29655 7.2193e+00     1.4604    69.4135     0.2717     0.0214  0.000e+00
     13.110    14.8874 225.509112    282.656    8.08917   80.08798 7.2129e+00     1.4683    69.2753     0.2760     0.0219  0.000e+00
     13.141    14.8501 225.328128    282.695    8.07987   79.93129 7.1643e+00     1.4711    69.2276     0.2640     0.0221  0.000e+00
     13.178    14.8284 225.147134    282.621    8.07374   79.83317 7.0932e+00     1.4602    69.4168     0.2565     0.0227  0.000e+00
     13.228    14.8202 225.328152    282.907    8.07771   79.85830 6.9879e+00     1.4673    69.2934     0.2705     0.0227  0.000e+00
     13.292    14.8234 226.746122    284.664    8.08934   79.97929 6.8171e+00     1.4744    69.1700     0.2942     0.0227  0.000e+00
     13.364    14.8317 227.651257    285.741    8.10333   80.13228 6.6208e+00     1.4821    69.0368     0.2921     0.0221  0.000e+00
     13.433    14.8409 227.621079    285.637    8.11548   80.26825 6.4370e+00     1.4658    69.3197     0.2970     0.0217  0.000e+00
     13.497    14.8465 227.530561    285.483    8.11457   80.26912 6.2527e+00     1.4623    69.3806     0.2974     0.0221  0.000e+00
     13.547    14.8356 227.289197    285.258    8.09688   80.07510 6.1159e+00     1.4610    69.4020     0.2727     0.0227  0.000e+00
     13.580    14.8216 226.444426    284.298    8.05061   79.59319 6.0142e+00     1.4808    69.0598     0.2694     0.0216  0.000e+00
     13.601    14.8230 225.448832    283.038    7.98878   78.98394 5.9704e+00     1.4633    69.3625     0.3043     0.0208  0.000e+00
     13.618    14.8432 224.935955    282.251    7.92584   78.39580 5.9058e+00     1.4646    69.3395     0.2855     0.0204  0.000e+00
     13.639    14.8621 224.935942    282.117    7.87792   77.95371 5.8200e+00     1.4555    69.4974     0.2514     0.0202  0.000e+00
     13.671    14.8585 224.966113    282.181    7.86135   77.78352 5.6976e+00     1.4681    69.2786     0.2361     0.0205  0.000e+00
     13.707    14.8513 225.026455    282.308    7.86820   77.83923 5.5818e+00     1.4638    69.3543     0.2306     0.0211  0.000e+00
     13.744    14.8463 224.875620    282.154    7.87484   77.89649 5.4429e+00     1.4913    68.8789     0.2592     0.0211  0.000e+00
     13.787    14.8422 224.754952    282.031    7.89617   78.10047 5.3160e+00     1.4887    68.9233     0.3061     0.0212  0.000e+00
     13.824    14.8391 224.332611    281.523    7.90971   78.22922 5.2172e+00     1.4877    68.9397     0.3079     0.0214  0.000e+00
     13.861    14.8371 223.970611    281.083    7.91555   78.28340 5.1274e+00     1.4644    69.3428     0.3014     0.0212  0.000e+00
     13.907    14.8289 223.729287    280.838    7.91455   78.25946 5.0374e+00     1.4563    69.4842     0.2720     0.0218  0.000e+00
     13.958    14.8090 223.638804    280.865    7.91036   78.18439 4.9286e+00     1.4601    69.4184     0.2602     0.0231  0.000e+00
     14.011    14.7920 223.548319    280.871    7.90299   78.08284 4.8316e+00     1.4737    69.1816     0.2797     0.0237  0.000e+00
     14.069    14.7824 223.518161    280.901    7.88989   77.93719 4.8014e+00     1.4605    69.4102     0.2780     0.0220  0.000e+00
     14.128    14.7740 223.518168    280.960    7.88138   77.83902 4.6968e+00     1.4647    69.3378     0.3468     0.0223  0.000e+00
     14.180    14.7661 223.548341    281.054    7.84973   77.51317 4.6192e+00     1.4762    69.1388     0.3595     0.0218  0.000e+00
     14.220    14.7612 223.337185    280.823    7.81724   77.18400 4.5640e+00     1.4591    69.4349     0.3410     0.0217  0.000e+00
     14.254    14.7627 223.367350    280.851    7.77345   76.75415 4.5111e+00     1.4536    69.5303     0.3038     0.0222  0.000e+00
     14.284    14.7376 223.578530    281.294    7.74011   76.38361 4.4853e+00     1.4624    69.3773     0.2642     0.0217  0.000e+00
     14.311    14.7015 223.457893    281.398    7.72573   76.18195 4.4653e+00     1.4535    69.5319     0.2873     0.0217  0.000e+00
     14.331    14.6761 223.337249    281.426    7.72876   76.16985 4.4597e+00     1.4883    68.9299     0.2779     0.0217  0.000e+00
     14.355    14.6557 223.367430    281.609    7.74241   76.27061 4.4373e+00     1.4569    69.4727     0.2615     0.0206  0.000e+00
     14.386    14.6346 223.457943    281.872    7.75469   76.35675 4.4088e+00     1.4687    69.2687     0.2885     0.0219  0.000e+00
     14.417    14.6274 223.397617    281.848    7.76397   76.43613 4.3616e+00     1.4302    69.9383     0.3223     0.0222  0.000e+00
     14.461    14.6326 223.337283    281.734    7.77033   76.50743 4.2994e+00     1.4452    69.6767     0.3184     0.0221  0.000e+00
     14.513    14.6362 223.397613    281.785    7.76663   76.47687 4.2663e+00     1.4911    68.8822     0.3140     0.0214  0.000e+00
     14.565    14.6444 223.518272    281.879    7.75505   76.37649 4.1994e+00     1.4614    69.3954     0.3327     0.0228  0.000e+00
     14.618    14.6550 223.397602    281.652    7.73618   76.20811 4.1306e+00     1.4656    69.3230     0.3366     0.0228  0.000e+00
     14.673    14.6625 223.518261    281.750    7.71176   75.98004 4.0717e+00     1.4682    69.2770     0.3355     0.0227  0.000e+00
     14.725    14.6669 223.397595    281.567    7.68721   75.74531 3.9977e+00     1.4664    69.3082     0.3299     0.0211  0.000e+00
     14.774    14.6687 223.397595    281.554    7.67418   75.61997 3.9406e+00     1.4655    69.3247     0.3603     0.0211  0.000e+00
     14.821    14.6681 223.397596    281.558    7.65618   75.44155 3.8717e+00     1.4418    69.7359     0.3742     0.0206  0.000e+00
     14.870    14.6669 223.337267    281.491    7.63984   75.27856 3.8136e+00     1.4452    69.6767     0.3410     0.0205  0.000e+00
     14.916    14.6673 223.307102    281.450    7.62628   75.14560 3.7443e+00     1.4539    69.5254     0.3336     0.0210  0.000e+00
     14.953    14.6669 223.337268    281.491    7.61506   75.03430 3.7000e+00     1.4591    69.4349     0.3118     0.0202  0.000e+00
     14.981    14.6590 223.367440    281.585    7.61577   75.02859 3.6715e+00     1.4566    69.4793     0.2770     0.0205  0.000e+00
     15.000    14.6423 223.216625    281.513    7.62562   75.09839 3.6635e+00     1.4814    69.0500     0.2493     0.0211  0.000e+00
     15.012    14.6269 222.975313    281.318    7.65081   75.32116 3.6576e+00     1.4493    69.6060     0.2723     0.0213  0.000e+00
     15.023    14.6068 222.854668    281.309    7.69433   75.71653 3.6490e+00     1.4630    69.3674     0.2991     0.0211  0.000e+00
     15.047    14.5767 222.734030    281.370    7.73317   76.04903 3.6274e+00     1.4758    69.1454     0.2915     0.0205  0.000e+00
     15.084    14.5577 222.945200    281.773    7.77876   76.46577 3.5613e+00     1.4721    69.2095     0.2926     0.0214  0.000e+00
     15.139    14.5513 223.639016    282.696    7.81156   76.77769 3.4845e+00     1.4869    68.9545     0.3043     0.0218  0.000e+00
     15.210    14.5513 223.820015    282.924    7.83992   77.05655 3.3780e+00     1.4645    69.3411     0.3033     0.0224  0.000e+00
     15.281    14.5571 223.970845    283.073    7.85747   77.23879 3.2794e+00     1.4545    69.5155     0.3165     0.0237  0.000e+00
     15.347    14.5460 224.031188    283.229    7.86047   77.24967 3.1957e+00     1.4738    69.1799     0.3187     0.0224  0.000e+00
     15.407    14.4724 223.970909    283.681    7.87867   77.30470 3.1209e+00     1.5023    68.6897     0.2940     0.0214  0.000e+00
     15.457    14.3875 223.940805    284.254    7.88755   77.24890 3.0560e+00     1.4696    69.2539     0.2837     0.0227  0.000e+00
     15.496    14.3422 223.759840    284.352    7.89517   77.24717 3.0153e+00     1.4722    69.2079     0.2724     0.0234  0.000e+00
     15.525    14.3468 223.518508    284.012    7.88804   77.18506 3.0006e+00     1.5014    68.7045     0.2596     0.0231  0.000e+00
     15.551    14.3602 223.277172    283.608    7.88067   77.13546 2.9650e+00     1.4715    69.2210     0.2659     0.0237  0.000e+00
     15.575    14.4126 223.186638    283.116    7.87154   77.13405 2.9334e+00     1.4792    69.0878     0.2718     0.0236  0.000e+00
     15.590    14.4643 223.156435    282.707    7.85801   77.08821 2.9048e+00     1.4638    69.3543     0.2457     0.0227  0.000e+00
     15.593    14.5025 223.156408    282.434    7.86325   77.20370 2.8838e+00     1.4705    69.2375     0.2504     0.0231  0.000e+00
     15.594    14.5279 223.096058    282.176    7.86281   77.24204 2.8666e+00     1.4706    69.2358     0.2862     0.0244  0.000e+00
     15.595    14.5436 223.186543    282.178    7.86039   77.24470 2.8588e+00     1.4628    69.3707     0.2909     0.0248  0.000e+00
     15.596    14.5547 223.216701    282.137    7.85942   77.25365 2.8377e+00     1.4718    69.2145     0.2865     0.0256  0.000e+00
     15.596    14.5633 223.186529    282.038    7.85610   77.23551 2.7866e+00     1.4905    68.8920     0.3237     0.0250  0.000e+00
     15.597    14.5698 223.096028    281.877    7.85149   77.20115 2.7330e+00     1.4778    69.1108     0.3314     0.0241  0.000e+00
     15.601    14.5735 222.975364    281.698    7.85527   77.24444 2.6750e+00     1.4462    69.6603     0.3576     0.0236  0.000e+00
     15.610    14.5768 222.673712    281.294    7.84658   77.16442 2.5973e+00     1.4509    69.5780     0.3713     0.0227  0.000e+00
     15.619    14.5797 222.734040    281.350    7.84198   77.12398 2.5593e+00     1.4951    68.8131     0.3875     0.0217  0.000e+00
     15.628    14.5818 223.035689    281.715    7.83253   77.03467 2.5012e+00     1.4742    69.1733     0.4424     0.0218  0.000e+00
