* Sea-Bird SBE19plus Data File:
* FileName = C:\Users\Steve Constant\Desktop\CHRP2017\CTD\raw\chp32017020.hex
* Software Version 1.59
* Temperature SN =  6337
* Conductivity SN =  6337
* System UpLoad Time = May 26 2017 12:32:16
* ds
* SBE 19plus V 2.5.2  SERIAL NO. 6337    26 May 2017 08:26:09
* vbatt = 12.1, vlith =  8.2, ioper =  61.3 ma, ipump =  48.3 ma,
* iext01 =   5.8 ma, iext2345 =  86.7 ma
* status = not logging
* number of scans to average = 1
* samples = 300534, free = 2560254, casts = 22
* mode = profile, minimum cond freq = 3154, pump delay = 40 sec
* autorun = no, ignore magnetic switch = no
* battery type = alkaline, battery cutoff =  7.5 volts
* pressure sensor = strain gauge, range = 160.0
* SBE 38 = no, WETLABS = no, OPTODE = no, SBE63 = no, Gas Tension Device = no
* Ext Volt 0 = yes, Ext Volt 1 = yes
* Ext Volt 2 = yes, Ext Volt 3 = yes
* Ext Volt 4 = yes, Ext Volt 5 = yes
* echo characters = yes
* output format = raw HEX

* S>
*
* SBE 19plus V 2.5.2  SERIAL NO. 6337    26 May 2017 08:26:47
* temperature:  13-Jan-17
*     TA0 = 1.295807e-03
*     TA1 = 2.588888e-04
*     TA2 = 9.706836e-08
*     TA3 = 1.382757e-07
*     TOFFSET = 0.000000e+00
* conductivity:  13-Jan-17
*     G = -1.015047e+00
*     H = 1.449340e-01
*     I = -4.359138e-04
*     J = 5.256769e-05
*     CPCOR = -9.570000e-08
*     CTCOR = 3.250000e-06
*     CSLOPE = 1.000000e+00
* pressure S/N = 2882551, range = 160 psia:  11-Jan-17
*     PA0 = -1.431544e-01
*     PA1 = 4.887645e-04
*     PA2 = -6.439018e-12
*     PTCA0 = 5.240819e+05
*     PTCA1 = -1.723854e+01
*     PTCA2 = 1.164354e-01
*     PTCB0 = 2.491288e+01
*     PTCB1 = -1.025000e-03
*     PTCB2 = 0.000000e+00
*     PTEMPA0 = -6.474687e+01
*     PTEMPA1 = 5.145625e+01
*     PTEMPA2 = -2.579592e-01
*     POFFSET = 0.000000e+00
* volt 0: offset = -4.766105e-02, slope = 1.249330e+00
* volt 1: offset = -4.904947e-02, slope = 1.248985e+00
* volt 2: offset = -4.772842e-02, slope = 1.248965e+00
* volt 3: offset = -4.803053e-02, slope = 1.249328e+00
* volt 4: offset = -4.743158e-02, slope = 1.248557e+00
* volt 5: offset = -4.724737e-02, slope = 1.251092e+00
*     EXTFREQSF = 9.999918e-01
* dh
* cast  20 23 May 2017 13:21:32 samples 296412 to 298079, avg = 1, stop = mag switch

* S>
# nquan = 12
# nvalues = 982                                   
# units = specified
# name 0 = depFM: Depth [fresh water, m]
# name 1 = tv290C: Temperature [ITS-90, deg C]
# name 2 = c0uS/cm: Conductivity [uS/cm]
# name 3 = specc: Specific Conductance [uS/cm]
# name 4 = sbeox0Mg/L: Oxygen, SBE 43 [mg/l]
# name 5 = sbeox0PS: Oxygen, SBE 43 [% saturation]
# name 6 = par: PAR/Irradiance, Biospherical/Licor
# name 7 = CStarAt0: Beam Attenuation, WET Labs C-Star [1/m]
# name 8 = CStarTr0: Beam Transmission, WET Labs C-Star [%]
# name 9 = chloroflTC0: Chlorophyll, Turner Cyclops [ug/l]
# name 10 = phycyflTC0: Phycocyanin, Turner Cyclops [RFU]
# name 11 = flag:  0.000e+00
# span 0 =     -0.297,     21.400                 
# span 1 =     9.6923,    16.0465                 
# span 2 =   5.609212, 211.395499                 
# span 3 =      6.850,    286.449                 
# span 4 =    6.89020,   10.51717                 
# span 5 =   65.39572,   99.61685                 
# span 6 = 2.6975e+00, 4.0065e+03                 
# span 7 =     0.0717,    15.0847                 
# span 8 =     2.3025,    98.2224                 
# span 9 =     0.0000,     1.3645                 
# span 10 =     0.0000,     0.9256                
# span 11 = 0.0000e+00, 0.0000e+00                
# interval = seconds: 0.25
# start_time = May 23 2017 13:21:32 [Instrument's time stamp, header]
# bad_flag = -9.990e-29
# <Sensors count="9" >
#   <sensor Channel="1" >
#     <!-- Count, Temperature -->
#     <TemperatureSensor SensorID="58" >
#       <SerialNumber>6337</SerialNumber>
#       <CalibrationDate>13-Jan-17</CalibrationDate>
#       <A0>1.29580686e-003</A0>
#       <A1>2.58888790e-004</A1>
#       <A2>9.70683569e-008</A2>
#       <A3>1.38275720e-007</A3>
#       <Slope>1.00000000</Slope>
#       <Offset>0.0000</Offset>
#     </TemperatureSensor>
#   </sensor>
#   <sensor Channel="2" >
#     <!-- Frequency 0, Conductivity -->
#     <ConductivitySensor SensorID="3" >
#       <SerialNumber>6337</SerialNumber>
#       <CalibrationDate>13-Jan-17</CalibrationDate>
#       <UseG_J>1</UseG_J>
#       <!-- Cell const and series R are applicable only for wide range sensors. -->
#       <SeriesR>0.0000</SeriesR>
#       <CellConst>2000.0000</CellConst>
#       <ConductivityType>0</ConductivityType>
#       <Coefficients equation="0" >
#         <A>0.00000000e+000</A>
#         <B>0.00000000e+000</B>
#         <C>0.00000000e+000</C>
#         <D>0.00000000e+000</D>
#         <M>0.0</M>
#         <CPcor>-9.57000000e-008</CPcor>
#       </Coefficients>
#       <Coefficients equation="1" >
#         <G>-1.01504657e+000</G>
#         <H>1.44933984e-001</H>
#         <I>-4.35913838e-004</I>
#         <J>5.25676850e-005</J>
#         <CPcor>-9.57000000e-008</CPcor>
#         <CTcor>3.2500e-006</CTcor>
#         <!-- WBOTC not applicable unless ConductivityType = 1. -->
#         <WBOTC>0.00000000e+000</WBOTC>
#       </Coefficients>
#       <Slope>1.00000000</Slope>
#       <Offset>0.00000</Offset>
#     </ConductivitySensor>
#   </sensor>
#   <sensor Channel="3" >
#     <!-- Count, Pressure, Strain Gauge -->
#     <PressureSensor SensorID="46" >
#       <SerialNumber>6337</SerialNumber>
#       <CalibrationDate>11-Jan-17</CalibrationDate>
#       <PA0>-1.43154376e-001</PA0>
#       <PA1>4.88764480e-004</PA1>
#       <PA2>-6.43901847e-012</PA2>
#       <PTEMPA0>-6.47468750e+001</PTEMPA0>
#       <PTEMPA1>5.14562526e+001</PTEMPA1>
#       <PTEMPA2>-2.57959185e-001</PTEMPA2>
#       <PTCA0>5.24081949e+005</PTCA0>
#       <PTCA1>-1.72385379e+001</PTCA1>
#       <PTCA2>1.16435406e-001</PTCA2>
#       <PTCB0>2.49128750e+001</PTCB0>
#       <PTCB1>-1.02500000e-003</PTCB1>
#       <PTCB2>0.00000000e+000</PTCB2>
#       <Offset>0.000000</Offset>
#     </PressureSensor>
#   </sensor>
#   <sensor Channel="4" >
#     <!-- A/D voltage 0, Oxygen, SBE 43 -->
#     <OxygenSensor SensorID="38" >
#       <SerialNumber>2361</SerialNumber>
#       <CalibrationDate>20-Jan-17</CalibrationDate>
#       <Use2007Equation>1</Use2007Equation>
#       <CalibrationCoefficients equation="0" >
#         <!-- Coefficients for Owens-Millard equation. -->
#         <Boc>0.0000</Boc>
#         <Soc>0.0000e+000</Soc>
#         <offset>0.0000</offset>
#         <Pcor>0.00e+000</Pcor>
#         <Tcor>0.0000</Tcor>
#         <Tau>0.0</Tau>
#       </CalibrationCoefficients>
#       <CalibrationCoefficients equation="1" >
#         <!-- Coefficients for Sea-Bird equation - SBE calibration in 2007 and later. -->
#         <Soc>3.9698e-001</Soc>
#         <offset>-0.4986</offset>
#         <A>-3.9823e-003</A>
#         <B> 2.4447e-004</B>
#         <C>-3.3613e-006</C>
#         <D0> 2.5826e+000</D0>
#         <D1> 1.92634e-004</D1>
#         <D2>-4.64803e-002</D2>
#         <E> 3.6000e-002</E>
#         <Tau20> 1.0800</Tau20>
#         <H1>-3.3000e-002</H1>
#         <H2> 5.0000e+003</H2>
#         <H3> 1.4500e+003</H3>
#       </CalibrationCoefficients>
#     </OxygenSensor>
#   </sensor>
#   <sensor Channel="5" >
#     <!-- A/D voltage 1, Free -->
#   </sensor>
#   <sensor Channel="6" >
#     <!-- A/D voltage 2, PAR/Irradiance, Biospherical/Licor -->
#     <PAR_BiosphericalLicorChelseaSensor SensorID="42" >
#       <SerialNumber>70234</SerialNumber>
#       <CalibrationDate>11/29/16</CalibrationDate>
#       <M>1.00000000</M>
#       <B>0.00000000</B>
#       <CalibrationConstant>10917030568.00000000</CalibrationConstant>
#       <Multiplier>1.00000000</Multiplier>
#       <Offset>-0.09353959</Offset>
#     </PAR_BiosphericalLicorChelseaSensor>
#   </sensor>
#   <sensor Channel="7" >
#     <!-- A/D voltage 3, Transmissometer, WET Labs C-Star -->
#     <WET_LabsCStar SensorID="71" >
#       <SerialNumber>CST-484PR</SerialNumber>
#       <CalibrationDate>12/23/16</CalibrationDate>
#       <M>21.5610</M>
#       <B>-1.2721</B>
#       <PathLength>0.250</PathLength>
#     </WET_LabsCStar>
#   </sensor>
#   <sensor Channel="8" >
#     <!-- A/D voltage 4, Fluorometer, Turner Cyclops -->
#     <Fluorometer SensorID="68" >
#       <SerialNumber></SerialNumber>
#       <CalibrationDate></CalibrationDate>
#       <ScaleFactor>1.00000000e+000</ScaleFactor>
#       <Offset>0.00000000e+000</Offset>
#       <!-- 1 = C, Chlorophyll -->
#       <!-- 2 = R, Rhodamine -->
#       <!-- 3 = F, Fluorescein -->
#       <!-- 4 = P, Phycocyanin -->
#       <!-- 5 = E, Phycoerythrin -->
#       <!-- 6 = U, CDOM -->
#       <!-- 7 = O, CrudeOil -->
#       <!-- 8 = B, OpticalBrightness -->
#       <!-- 9 = T, Turbidity -->
#       <!-- 10 = G, Refined Fuels -->
#       <MeasuredParameter>4</MeasuredParameter>
#     </Fluorometer>
#   </sensor>
#   <sensor Channel="9" >
#     <!-- A/D voltage 5, Fluorometer, Turner Cyclops, 2 -->
#     <Fluorometer SensorID="68" >
#       <SerialNumber></SerialNumber>
#       <CalibrationDate></CalibrationDate>
#       <ScaleFactor>1.00000000e+000</ScaleFactor>
#       <Offset>0.00000000e+000</Offset>
#       <!-- 1 = C, Chlorophyll -->
#       <!-- 2 = R, Rhodamine -->
#       <!-- 3 = F, Fluorescein -->
#       <!-- 4 = P, Phycocyanin -->
#       <!-- 5 = E, Phycoerythrin -->
#       <!-- 6 = U, CDOM -->
#       <!-- 7 = O, CrudeOil -->
#       <!-- 8 = B, OpticalBrightness -->
#       <!-- 9 = T, Turbidity -->
#       <!-- 10 = G, Refined Fuels -->
#       <MeasuredParameter>1</MeasuredParameter>
#     </Fluorometer>
#   </sensor>
# </Sensors>
# datcnv_date = May 26 2017 13:03:39, 7.21d [datcnv_vars = 11]
# datcnv_in = C:\Users\Steve Constant\Desktop\CHRP2017\CTD\raw\CHRP7.hex C:\Users\Steve Constant\Desktop\CHRP2017\CTD\raw\SBE19plusV2_63372017.xmlcon
# datcnv_skipover = 0
# datcnv_ox_hysteresis_correction = yes
# datcnv_ox_tau_correction = yes
# file_type = ascii
*END*
     -0.294    16.0458   7.101633      8.650    9.38360   95.16472 7.9903e+02     0.2644    93.6049     0.6826     0.0000  0.000e+00
     -0.293    16.0438   6.952386      8.469    9.38557   95.18054 8.0467e+02     0.1916    95.3239     0.7086     0.0023  0.000e+00
     -0.294    16.0444   6.892687      8.396    9.37981   95.12347 8.0467e+02     0.2650    93.5900     0.7119     0.0115  0.000e+00
     -0.294    16.0456   6.832989      8.323    9.38221   95.15021 8.0750e+02     0.3329    92.0141     0.7214     0.0120  0.000e+00
     -0.294    16.0465   6.773290      8.250    9.38128   95.14255 8.0227e+02     0.3280    92.1276     0.7384     0.0069  0.000e+00
     -0.295    16.0464   6.743441      8.214    9.38400   95.16986 8.1477e+02     0.2939    92.9156     0.7562     0.0074  0.000e+00
     -0.295    16.0460   6.713592      8.177    9.38225   95.15140 8.6249e+02     0.2813    93.2101     0.7647     0.0114  0.000e+00
     -0.294    16.0462   6.653894      8.105    9.37907   95.11956 3.3199e+03     0.2918    92.9649     0.7511     0.0121  0.000e+00
     -0.294    16.0457   6.624045      8.068    9.37628   95.09023 3.1467e+03     0.3020    92.7281     0.7423     0.0177  0.000e+00
     -0.294    16.0412   6.653894      8.106    9.38396   95.15902 2.9752e+03     0.3021    92.7248     0.7419     0.0213  0.000e+00
     -0.294    16.0377   6.534499      7.961    9.37484   95.05941 3.0434e+03     0.2974    92.8350     0.7453     0.0211  0.000e+00
     -0.294    16.0360   6.594197      8.034    9.37596   95.06731 3.0493e+03     0.2948    92.8942     0.7395     0.0156  0.000e+00
     -0.293    16.0347   6.474802      7.889    9.37560   95.06108 3.1203e+03     0.2967    92.8498     0.7420     0.0037  0.000e+00
     -0.294    16.0283   6.534499      7.963    9.37828   95.07531 3.3257e+03     0.2990    92.7972     0.7485     0.0085  0.000e+00
     -0.294    16.0242   6.474802      7.891    9.38491   95.13423 3.1946e+03     0.2988    92.8021     0.7556     0.0132  0.000e+00
     -0.294    16.0200   6.534500      7.964    9.38379   95.11449 2.9080e+03     0.2979    92.8235     0.7613     0.0177  0.000e+00
     -0.295    16.0147   6.534500      7.965    9.38789   95.14532 8.3844e+02     0.2968    92.8482     0.7613     0.0188  0.000e+00
     -0.295    16.0088   6.415105      7.821    9.38563   95.11051 8.1205e+02     0.2972    92.8383     0.7594     0.0201  0.000e+00
     -0.294    16.0029   6.474803      7.895    9.39201   95.16329 8.1034e+02     0.2977    92.8268     0.7567     0.0156  0.000e+00
     -0.294    15.9982   6.474803      7.896    9.39207   95.15445 8.1419e+02     0.2968    92.8482     0.7476     0.0127  0.000e+00
     -0.294    15.9950   6.415106      7.824    9.38962   95.12308 8.1577e+02     0.2966    92.8531     0.7523     0.0116  0.000e+00
     -0.295    15.9932   6.444954      7.860    9.38596   95.08230 7.9875e+02     0.2961    92.8646     0.7684     0.0135  0.000e+00
     -0.295    15.9900   6.355409      7.752    9.38200   95.03579 7.6027e+02     0.2958    92.8712     0.7848     0.0134  0.000e+00
     -0.295    15.9839   6.355409      7.753    9.37834   94.98643 7.4624e+02     0.2955    92.8778     0.7792     0.0117  0.000e+00
     -0.295    15.9751   6.325561      7.718    9.37331   94.91768 7.4690e+02     0.2953    92.8827     0.7794     0.0167  0.000e+00
     -0.295    15.9648   6.295712      7.684    9.37039   94.86727 7.5442e+02     0.2948    92.8959     0.7758     0.0211  0.000e+00
     -0.295    15.9545   6.355409      7.758    9.36517   94.79376 7.6349e+02     0.2948    92.8959     0.7768     0.0182  0.000e+00
     -0.294    15.9456   6.325561      7.724    9.35982   94.72155 7.9343e+02     0.2947    92.8975     0.7624     0.0172  0.000e+00
     -0.294    15.9418   6.295713      7.688    9.35955   94.71121 7.9330e+02     0.2954    92.8811     0.7595     0.0210  0.000e+00
     -0.295    15.9422   6.265865      7.651    9.35639   94.68013 7.9931e+02     0.2951    92.8876     0.7725     0.0215  0.000e+00
     -0.295    15.9436   6.295713      7.688    9.35457   94.66461 7.9889e+02     0.2953    92.8843     0.7771     0.0213  0.000e+00
     -0.295    15.9455   6.265864      7.651    9.35518   94.67445 7.9665e+02     0.2962    92.8630     0.7955     0.0172  0.000e+00
     -0.295    15.9482   6.236016      7.614    9.35055   94.63301 7.9931e+02     0.2960    92.8679     0.7913     0.0131  0.000e+00
     -0.295    15.9512   6.206168      7.577    9.35881   94.72276 7.9987e+02     0.2954    92.8811     0.7816     0.0166  0.000e+00
     -0.295    15.9543   6.206168      7.576    9.35697   94.71042 8.1148e+02     0.2953    92.8843     0.7742     0.0208  0.000e+00
     -0.295    15.9544   6.176319      7.540    9.36305   94.77214 8.3903e+02     0.2955    92.8778     0.7731     0.0266  0.000e+00
     -0.295    15.9502   6.146471      7.504    9.36269   94.75994 8.3903e+02     0.2957    92.8745     0.7780     0.0256  0.000e+00
     -0.295    15.9494   6.116623      7.468    9.36292   94.76062 8.2906e+02     0.2965    92.8547     0.7861     0.0273  0.000e+00
     -0.295    15.9480   6.146471      7.505    9.36352   94.76395 8.2979e+02     0.2960    92.8679     0.7929     0.0257  0.000e+00
     -0.295    15.9461   6.086775      7.432    9.37132   94.83894 8.3755e+02     0.2955    92.8778     0.7948     0.0243  0.000e+00
     -0.295    15.9446   6.086775      7.432    9.37098   94.83253 8.3682e+02     0.2948    92.8942     0.7904     0.0181  0.000e+00
     -0.295    15.9453   6.027079      7.359    9.37471   94.87179 8.3286e+02     0.2951    92.8876     0.7885     0.0143  0.000e+00
     -0.295    15.9444   6.086775      7.432    9.38130   94.93666 8.4732e+02     0.2950    92.8909     0.7948     0.0167  0.000e+00
     -0.295    15.9392   6.027079      7.360    9.38620   94.97559 8.6053e+02     0.2944    92.9041     0.7990     0.0198  0.000e+00
     -0.295    15.9348   5.967384      7.288    9.38916   94.99662 1.6595e+03     0.2946    92.9008     0.7944     0.0217  0.000e+00
     -0.295    15.9327   5.967384      7.289    9.39507   95.05228 2.7597e+03     0.2943    92.9057     0.8010     0.0278  0.000e+00
     -0.295    15.9327   5.967384      7.289    9.39775   95.07939 2.9244e+03     0.2944    92.9041     0.7984     0.0230  0.000e+00
     -0.295    15.9319   5.967384      7.289    9.39682   95.06841 3.0205e+03     0.2943    92.9074     0.7848     0.0184  0.000e+00
     -0.296    15.9267   5.937536      7.253    9.40340   95.12448 3.0919e+03     0.2946    92.8991     0.7777     0.0169  0.000e+00
     -0.296    15.9246   5.967384      7.290    9.40191   95.10503 2.9883e+03     0.2956    92.8761     0.7806     0.0172  0.000e+00
     -0.296    15.9264   5.907688      7.217    9.40178   95.10730 2.9296e+03     0.2951    92.8876     0.7802     0.0213  0.000e+00
     -0.295    15.9284   5.967384      7.289    9.40041   95.09769 2.9622e+03     0.2948    92.8942     0.7863     0.0200  0.000e+00
     -0.296    15.9307   5.907688      7.216    9.39877   95.08576 3.2472e+03     0.2948    92.8959     0.7853     0.0199  0.000e+00
     -0.296    15.9328   5.847992      7.143    9.39662   95.06823 8.0537e+02     0.2948    92.8942     0.7957     0.0200  0.000e+00
     -0.295    15.9330   5.728602      6.997    9.39483   95.05049 7.3764e+02     0.2948    92.8942     0.8015     0.0174  0.000e+00
     -0.295    15.9343   5.728602      6.997    9.39500   95.05479 6.7241e+02     0.2946    92.9008     0.7004     0.0163  0.000e+00
     -0.295    15.9370   5.609212      6.850    9.39081   95.01775 6.3542e+02     0.2940    92.9140     0.4903     0.0140  0.000e+00
     -0.295    15.9400   5.668907      6.923    9.39106   95.02628 6.2567e+02     0.2949    92.8926     0.3272     0.0000  0.000e+00
     -0.296    15.9423   5.668907      6.922    9.38783   94.99828 6.1781e+02     0.2941    92.9123     0.2152     0.0000  0.000e+00
     -0.295    15.9434   5.728602      6.995    9.38395   94.96132 5.8055e+02     0.2938    92.9189     0.1387     0.0034  0.000e+00
     -0.296    15.9398   5.728602      6.996    9.38762   94.99124 5.3341e+02     0.2942    92.9090     0.0961     0.0140  0.000e+00
     -0.295    15.9357   5.728602      6.996    9.38494   94.95585 5.2210e+02     0.2943    92.9057     0.0716     0.0107  0.000e+00
     -0.296    15.9298   5.758449      7.034    9.38729   94.96758 5.2200e+02     0.2945    92.9024     0.0533     0.0103  0.000e+00
     -0.296    15.9261   5.788297      7.071    9.38456   94.93248 5.1853e+02     0.2944    92.9041     0.0416     0.0123  0.000e+00
     -0.296    15.9272   5.818145      7.107    9.38771   94.96661 5.3802e+02     0.2944    92.9041     0.0383     0.0110  0.000e+00
     -0.296    15.9272   5.788297      7.071    9.38867   94.97635 5.5991e+02     0.2940    92.9140     0.0344     0.0166  0.000e+00
     -0.296    15.9237   5.847992      7.144    9.39449   95.02835 5.6436e+02     0.2939    92.9156     0.0330     0.0287  0.000e+00
     -0.296    15.9204   5.877840      7.181    9.39378   95.01433 5.6565e+02     0.2938    92.9189     0.0315     0.0141  0.000e+00
     -0.295    15.9194   5.907688      7.218    9.39365   95.01111 5.5531e+02     0.2934    92.9271     0.0305     0.0074  0.000e+00
     -0.295    15.9206   5.967384      7.291    9.39499   95.02708 5.5336e+02     0.2933    92.9304     0.0311     0.0000  0.000e+00
     -0.296    15.9181   5.967384      7.291    9.39369   95.00887 5.5824e+02     0.2934    92.9271     0.0288     0.0011  0.000e+00
     -0.296    15.9176   5.907688      7.218    9.39556   95.02685 5.6100e+02     0.2930    92.9370     0.0300     0.0119  0.000e+00
     -0.296    15.9203   5.907688      7.218    9.39207   94.99693 5.6804e+02     0.2939    92.9156     0.0319     0.0244  0.000e+00
     -0.295    15.9220   5.937536      7.254    9.39102   94.98961 5.7456e+02     0.2939    92.9156     0.0305     0.0169  0.000e+00
     -0.296    15.9191   5.847993      7.145    9.38969   94.97045 5.5472e+02     0.2933    92.9304     0.0306     0.0058  0.000e+00
     -0.296    15.9153   5.758450      7.036    9.39116   94.97764 5.9647e+02     0.2933    92.9304     0.0317     0.0015  0.000e+00
     -0.295    15.9143   5.728602      7.000    9.39279   94.99205 6.9891e+02     0.2927    92.9436     0.0278     0.0037  0.000e+00
     -0.296    15.9160   5.728602      7.000    9.39114   94.97876 7.0905e+02     0.2939    92.9156     0.0275     0.0007  0.000e+00
     -0.295    15.9163   5.668907      6.927    9.39209   94.98892 7.8181e+02     0.2934    92.9271     0.0233     0.0142  0.000e+00
     -0.295    15.9126   5.728602      7.000    9.39159   94.97642 8.4613e+02     0.2933    92.9304     0.0504     0.0421  0.000e+00
     -0.295    15.9103   6.146472      7.511    9.39203   94.97627 8.2470e+02     0.2929    92.9403     0.2589     0.0259  0.000e+00
     -0.295    15.9110   6.325562      7.730    9.39615   95.01956 6.8806e+02     0.2942    92.9090     0.4614     0.0179  0.000e+00
     -0.296    15.9123   6.265865      7.657    9.39159   94.97599 7.4940e+02     0.2935    92.9255     0.6051     0.0061  0.000e+00
     -0.297    15.9105   6.265865      7.657    9.39200   94.97654 3.0616e+03     0.2930    92.9370     0.6857     0.0000  0.000e+00
     -0.296    15.9103   6.295714      7.694    9.39169   94.97288 2.1096e+03     0.2921    92.9567     0.7401     0.0000  0.000e+00
     -0.295    15.9101   6.355410      7.767    9.39193   94.97495 1.8420e+03     0.2135    94.8024     0.7784     0.0000  0.000e+00
     -0.295    15.9060   6.683746      8.169    9.39811   95.02920 2.9794e+03     0.0717    98.2224     0.7745     0.0000  0.000e+00
     -0.296    15.9040   7.161335      8.753    9.39930   95.03741 3.8825e+03     0.1474    96.3833     0.7034     0.0000  0.000e+00
     -0.295    15.9051   7.847889      9.592    9.39522   94.99850 3.8968e+03     0.3043    92.6754     0.5154     0.0000  0.000e+00
     -0.296    15.9053   8.295654     10.139    9.39758   95.02290 3.7742e+03     0.3641    91.3002     0.3468     0.1716  0.000e+00
     -0.296    15.9040   8.206100     10.030    9.40023   95.04702 3.7629e+03     0.3190    92.3349     0.2805     0.2918  0.000e+00
     -0.295    15.9037   7.907590      9.665    9.40009   95.04492 3.7020e+03     0.2725    93.4140     0.2162     0.2199  0.000e+00
     -0.296    15.9029   7.788188      9.519    9.40269   95.06960 3.7326e+03     0.2721    93.4239     0.1463     0.1003  0.000e+00
     -0.296    15.8994   7.728487      9.447    9.40123   95.04777 3.8108e+03     0.2926    92.9469     0.0984     0.1938  0.000e+00
     -0.295    15.8982   7.758337      9.484    9.39923   95.02518 3.8122e+03     0.3027    92.7116     0.0643     0.0000  0.000e+00
     -0.295    15.8988   7.788188      9.520    9.40046   95.03887 2.8002e+03     0.2977    92.8284     0.0507     0.0000  0.000e+00
     -0.296    15.8994   7.728487      9.447    9.39988   95.03400 3.8122e+03     0.2895    93.0176     0.0461     0.0000  0.000e+00
     -0.296    15.9008   7.609085      9.301    9.39988   95.03702 3.7775e+03     0.2883    93.0456     0.0342     0.0000  0.000e+00
     -0.296    15.9022   7.609085      9.301    9.40176   95.05871 3.7901e+03     0.2919    92.9617     0.0340     0.0000  0.000e+00
     -0.296    15.9023   7.668786      9.374    9.39896   95.03071 3.7715e+03     0.2932    92.9320     0.0258     0.0000  0.000e+00
     -0.296    15.9032   7.609085      9.300    9.40271   95.07038 3.7689e+03     0.2931    92.9337     0.0301     0.0000  0.000e+00
     -0.295    15.9041   7.519534      9.191    9.40298   95.07492 2.4792e+03     0.2918    92.9649     0.0392     0.0000  0.000e+00
     -0.296    15.9025   7.489684      9.155    9.40079   95.04942 3.7915e+03     0.2906    92.9929     0.0188     0.0000  0.000e+00
     -0.296    15.8963   7.459834      9.120    9.40466   95.07606 3.2839e+03     0.2914    92.9732     0.0000     0.0340  0.000e+00
     -0.296    15.8883   7.459834      9.121    9.40784   95.09198 3.8593e+03     0.2930    92.9370     0.0406     0.0000  0.000e+00
     -0.295    15.8810   7.489685      9.159    9.41104   95.10967 3.8357e+03     0.2942    92.9090     0.0417     0.0714  0.000e+00
     -0.295    15.8763   7.459835      9.124    9.41343   95.12431 3.8189e+03     0.2936    92.9222     0.0299     0.0726  0.000e+00
     -0.295    15.8727   7.459835      9.125    9.41376   95.12041 3.8236e+03     0.2929    92.9386     0.0414     0.0356  0.000e+00
     -0.295    15.8680   7.489685      9.162    9.41704   95.14397 3.7702e+03     0.2931    92.9353     0.0324     0.0586  0.000e+00
     -0.295    15.8583   7.459835      9.128    9.42317   95.18635 3.7517e+03     0.2926    92.9469     0.0259     0.0862  0.000e+00
     -0.295    15.8448   7.459835      9.131    9.42286   95.15584 3.7478e+03     0.2924    92.9501     0.0227     0.0807  0.000e+00
     -0.294    15.8393   7.459836      9.132    9.42708   95.18736 3.7386e+03     0.2939    92.9156     0.0230     0.0573  0.000e+00
     -0.295    15.8402   7.519536      9.205    9.42912   95.20978 3.7576e+03     0.2931    92.9337     0.0269     0.0393  0.000e+00
     -0.295    15.8432   7.459835      9.131    9.42941   95.21870 3.7616e+03     0.2945    92.9024     0.0281     0.0169  0.000e+00
     -0.294    15.8471   7.340435      8.984    9.43151   95.24786 3.8182e+03     0.2938    92.9189     0.0262     0.0567  0.000e+00
     -0.294    15.8508   7.340435      8.984    9.43147   95.25492 3.8269e+03     0.2952    92.8860     0.0258     0.9256  0.000e+00
     -0.294    15.8550   7.459835      9.129    9.43139   95.26265 3.8566e+03     0.2967    92.8498     0.0276     0.5149  0.000e+00
     -0.295    15.8576   7.459835      9.128    9.43044   95.25826 3.8418e+03     0.2953    92.8827     0.0269     0.0000  0.000e+00
     -0.294    15.8594   7.459835      9.128    9.43077   95.26522 3.8607e+03     0.2930    92.9370     0.0240     0.0000  0.000e+00
     -0.294    15.8591   7.400135      9.055    9.42751   95.23164 3.9429e+03     0.2916    92.9682     0.0250     0.0000  0.000e+00
     -0.294    15.8588   7.340435      8.982    9.42341   95.18964 4.0065e+03     0.2922    92.9551     0.0272     0.0000  0.000e+00
     -0.294    15.8604   7.280735      8.908    9.42190   95.17772 3.9353e+03     0.2917    92.9666     0.0309     0.0000  0.000e+00
     -0.294    15.8619   7.221036      8.835    9.41944   95.15579 3.9995e+03     0.2931    92.9337     0.0285     0.0000  0.000e+00
     -0.294    15.8632   7.161336      8.762    9.42362   95.20072 3.8587e+03     0.2971    92.8416     0.0285     0.0000  0.000e+00
     -0.295    15.8645   7.131487      8.725    9.42350   95.20204 3.8736e+03     0.2999    92.7774     0.0304     0.0000  0.000e+00
     -0.295    15.8655   7.101637      8.688    9.42170   95.18582 3.7928e+03     0.3050    92.6590     0.0000     0.0000  0.000e+00
     -0.294    15.8668   6.982239      8.542    9.42330   95.20469 3.7881e+03     0.3145    92.4385     0.4333     0.0000  0.000e+00
     -0.288    15.8679   6.952390      8.505    9.42283   95.20219 3.8900e+03     0.3078    92.5932     0.7396     0.0000  0.000e+00
     -0.249    15.8666  14.027917     17.161    9.42198   95.19275 3.8532e+03     0.3005    92.7626     0.6367     0.0000  0.000e+00
     -0.219    15.4698  42.175304     52.102    9.49380   95.11794 3.7215e+03     0.2982    92.8153     0.5487     0.0000  0.000e+00
     -0.207    14.6757  41.876404     52.769    9.65077   95.04950 3.7248e+03     0.2982    92.8169     0.3958     0.0000  0.000e+00
     -0.178    14.1707  76.620823     97.795    9.75020   94.98880 3.7111e+03     0.2978    92.8251     0.2628     0.0140  0.000e+00
     -0.129    13.8510 185.032306    238.110    9.81662   95.00525 3.7808e+03     0.2979    92.8235     0.1769     0.1566  0.000e+00
     -0.086    13.6341 211.395499    273.563    9.86291   95.00766 3.7583e+03     4.1550    35.3900     0.1232     0.2802  0.000e+00
     -0.055    13.4572 210.069133    273.098    9.89539   94.94779 3.7215e+03    11.2021     6.0778     0.0936     0.4535  0.000e+00
     -0.040    13.3023 209.225155    273.101    9.92992   94.95213 3.7379e+03    15.0847     2.3025     0.0746     0.4508  0.000e+00
     -0.007    13.1611 208.441489    273.084    9.95454   94.88903 3.8015e+03    13.6279     3.3142     0.0623     0.2682  0.000e+00
      0.053    13.0433 207.386551    272.544    9.96657   94.75414 3.7274e+03     8.3559    12.3814     0.0559     0.0000  0.000e+00
      0.127    12.9550 207.627754    273.496    9.97406   94.63879 3.8102e+03     3.1233    45.8028     0.0536     0.0000  0.000e+00
      0.204    12.9028 207.989510    274.350    9.97659   94.55245 3.6929e+03     0.9756    78.3574     0.0539     0.0000  0.000e+00
      0.262    12.8824 209.798215    276.884    9.98767   94.61506 3.7941e+03     0.7159    83.6131     0.0515     0.0000  0.000e+00
      0.305    12.8841 209.979092    277.111   10.01334   94.86187 3.7124e+03     0.6755    84.4620     0.0503     0.0000  0.000e+00
      0.340    12.8977 209.918791    276.932   10.05957   95.32875 3.6388e+03     0.6686    84.6067     0.0507     0.0000  0.000e+00
      0.367    12.9249 210.280532    277.210   10.11141   95.87839 2.3561e+03     0.6638    84.7087     0.0510     0.0000  0.000e+00
      0.392    12.9451 210.280519    277.063   10.17149   96.49168 1.8014e+03     0.6581    84.8288     0.0513     0.0000  0.000e+00
      0.421    12.9549 210.431247    277.189   10.24964   97.25443 1.0551e+03     0.6545    84.9061     0.0508     0.0000  0.000e+00
      0.449    12.9705 210.461384    277.115   10.31696   97.92737 1.1917e+03     0.6694    84.5903     0.0471     0.0000  0.000e+00
      0.484    12.9766 209.587133    275.920   10.37696   98.50976 1.1036e+03     0.6566    84.8617     0.0474     0.0000  0.000e+00
      0.509    12.9575 209.737876    276.257   10.42626   98.93581 1.5485e+03     0.6628    84.7301     0.0479     0.0000  0.000e+00
      0.517    12.9381 209.134977    275.604   10.46701   99.27926 1.0741e+03     0.6673    84.6347     0.0478     0.0000  0.000e+00
      0.529    12.9098 208.200517    274.577   10.50068   99.53524 1.1123e+03     0.6525    84.9489     0.0472     0.0000  0.000e+00
      0.544    12.8764 207.929248    274.462   10.51717   99.61685 1.0549e+03     0.6583    84.8255     0.0484     0.0056  0.000e+00
      0.555    12.8532 207.868977    274.550   10.48033   99.21635 1.2643e+03     0.6729    84.5162     0.0476     0.0137  0.000e+00
      0.557    12.8400 207.989559    274.805   10.24304   96.94144 1.0165e+03     0.6523    84.9538     0.0479     0.0140  0.000e+00
      0.548    12.8296 207.868992    274.722   10.03633   94.96289 1.0672e+03     0.6621    84.7449     0.0475     0.0412  0.000e+00
      0.531    12.8192 207.778569    274.677    9.88503   93.50952 1.6993e+03     0.6514    84.9719     0.0455     0.0508  0.000e+00
      0.509    12.8119 207.627858    274.531    9.72532   91.98356 1.0798e+03     0.6657    84.6692     0.0462     0.0374  0.000e+00
      0.495    12.8068 207.507290    274.409    9.53228   90.14741 1.0235e+03     0.6775    84.4192     0.0478     0.0230  0.000e+00
      0.496    12.8049 207.447006    274.343    9.38474   88.74833 1.2724e+03     0.6489    85.0245     0.0468     0.0205  0.000e+00
      0.505    12.8054 207.567577    274.499    9.30372   87.98322 1.4909e+03     0.6536    84.9258     0.0471     0.0194  0.000e+00
      0.513    12.8070 207.808720    274.806    9.33844   88.31492 1.5531e+03     0.6471    85.0624     0.0531     0.0112  0.000e+00
      0.518    12.8111 208.502024    275.693    9.46248   89.49644 1.3093e+03     0.6495    85.0114     0.0578     0.0254  0.000e+00
      0.521    12.8222 208.351296    275.413    9.56135   90.45380 1.2879e+03     0.6664    84.6544     0.0561     0.0331  0.000e+00
      0.521    12.8261 208.502014    275.584    9.63754   91.18263 1.7213e+03     0.6891    84.1757     0.0555     0.0285  0.000e+00
      0.523    12.8216 208.411585    275.497    9.70503   91.81199 1.4165e+03     0.6519    84.9620     0.0558     0.0275  0.000e+00
      0.523    12.8166 208.381444    275.493    9.74948   92.22222 1.1046e+03     0.6464    85.0772     0.0563     0.0204  0.000e+00
      0.518    12.8148 208.502022    275.666    9.74610   92.18637 1.0298e+03     0.6500    85.0015     0.0554     0.0076  0.000e+00
      0.507    12.8160 208.502021    275.657    9.68485   91.60952 1.3770e+03     0.6501    84.9999     0.0549     0.0011  0.000e+00
      0.495    12.8176 208.230723    275.287    9.58911   90.70709 1.2222e+03     0.6861    84.2382     0.0559     0.0003  0.000e+00
      0.493    12.8167 207.929287    274.895    9.45100   89.39879 1.1837e+03     0.6618    84.7515     0.0545     0.0078  0.000e+00
      0.506    12.8154 207.838858    274.785    9.31677   88.12638 1.4700e+03     0.6512    84.9752     0.0525     0.0263  0.000e+00
      0.531    12.8193 207.808712    274.716    9.19026   86.93746 1.4587e+03     0.6411    85.1907     0.0558     0.0299  0.000e+00
      0.553    12.8277 208.019711    274.935    9.07642   85.87674 1.2847e+03     0.6381    85.2548     0.0559     0.0154  0.000e+00
      0.565    12.8405 208.924029    276.036    8.97396   84.93190 1.9516e+03     0.6400    85.2137     0.0539     0.0000  0.000e+00
      0.562    12.8551 209.557072    276.766    8.89118   84.17622 1.1125e+03     0.6485    85.0344     0.0534     0.0414  0.000e+00
      0.552    12.8552 208.984309    276.009    8.81629   83.46719 7.9302e+02     0.6554    84.8864     0.0536     0.0639  0.000e+00
      0.538    12.8478 208.411567    275.306    8.75475   82.87070 1.9254e+03     0.6542    84.9127     0.0494     0.1203  0.000e+00
      0.522    12.8381 207.989560    274.819    8.71683   82.49376 1.5980e+03     0.6525    84.9489     0.0507     0.2221  0.000e+00
      0.507    12.8307 207.929278    274.793    8.71633   82.47519 1.1247e+03     0.6609    84.7696     0.0531     0.1350  0.000e+00
      0.490    12.8284 207.929279    274.810    8.74971   82.78693 1.8916e+03     0.6538    84.9209     0.0535     0.0124  0.000e+00
      0.476    12.8300 207.929278    274.798    8.80498   83.31272 1.0666e+03     0.6576    84.8403     0.0543     0.0460  0.000e+00
      0.476    12.8307 207.838847    274.673    8.85211   83.76008 1.4238e+03     0.6640    84.7054     0.0548     0.0000  0.000e+00
      0.490    12.8300 207.688132    274.480    8.87306   83.95680 1.2506e+03     0.6485    85.0328     0.0534     0.0000  0.000e+00
      0.517    12.8297 207.657989    274.442    8.87928   84.01520 1.6104e+03     0.6591    84.8074     0.0521     0.0416  0.000e+00
      0.546    12.8326 207.929277    274.779    8.87389   83.96971 1.4677e+03     0.6561    84.8716     0.0515     0.0484  0.000e+00
      0.566    12.8418 209.014463    276.146    8.88272   84.07098 9.3871e+02     0.6539    84.9193     0.0508     0.1073  0.000e+00
      0.570    12.8577 209.798238    277.066    8.91327   84.39032 1.4185e+03     0.6536    84.9258     0.0485     0.2626  0.000e+00
      0.562    12.8577 209.918823    277.225    8.96533   84.88328 1.2877e+03     0.6445    85.1183     0.0487     0.1978  0.000e+00
      0.547    12.8739 209.376185    276.389    9.03471   85.57109 1.7872e+03     0.6445    85.1183     0.0488     0.2460  0.000e+00
      0.531    12.9019 208.562252    275.112    9.11396   86.37547 1.5412e+03     0.6535    84.9275     0.0470     0.1584  0.000e+00
      0.519    12.9049 208.110089    274.494    9.18780   87.08088 1.8658e+03     0.6651    84.6824     0.0470     0.0000  0.000e+00
      0.505    12.8987 208.019662    274.419    9.25702   87.72473 1.8599e+03     0.6643    84.6988     0.0490     0.0000  0.000e+00
      0.490    12.8894 207.989525    274.447    9.29722   88.08735 9.7075e+02     0.6461    85.0838     0.0469     0.0000  0.000e+00
      0.478    12.8811 208.079961    274.626    9.31460   88.23576 1.4626e+03     0.6540    84.9160     0.0471     0.0000  0.000e+00
      0.474    12.8733 207.929248    274.484    9.28665   87.95560 9.9004e+02     0.6669    84.6429     0.0497     0.0000  0.000e+00
      0.484    12.8631 207.718252    274.280    9.22603   87.36134 1.4429e+03     0.6550    84.8946     0.0510     0.0000  0.000e+00
      0.504    12.8543 207.748402    274.383    9.14962   86.62078 1.1908e+03     0.6465    85.0755     0.0512     0.0594  0.000e+00
      0.525    12.8511 207.989551    274.725    9.08241   85.97838 9.6057e+02     0.6657    84.6676     0.0510     0.2068  0.000e+00
      0.543    12.8570 208.713005    275.637    9.02057   85.40457 1.1455e+03     0.6505    84.9916     0.0519     0.1407  0.000e+00
      0.559    12.8679 209.346043    276.394    8.97753   85.01791 1.3734e+03     0.6533    84.9324     0.0523     0.1062  0.000e+00
      0.566    12.8677 209.647501    276.793    8.93970   84.65949 1.9356e+03     0.6556    84.8831     0.0523     0.1850  0.000e+00
      0.568    12.8623 209.376193    276.475    8.91303   84.39655 9.8952e+02     0.6496    85.0097     0.0501     0.1873  0.000e+00
      0.563    12.8579 208.863728    275.830    8.90059   84.27030 1.8949e+03     0.6632    84.7219     0.0478     0.1111  0.000e+00
      0.550    12.8562 208.622572    275.524    8.88867   84.15421 1.3612e+03     0.6736    84.5014     0.0472     0.0602  0.000e+00
      0.530    12.8579 208.562282    275.431    8.88451   84.11814 1.0039e+03     0.6534    84.9291     0.0470     0.0000  0.000e+00
      0.509    12.8559 208.260841    275.048    8.88182   84.08875 1.3838e+03     0.6507    84.9867     0.0486     0.0515  0.000e+00
      0.493    12.8510 207.868977    274.566    8.87469   84.01182 1.8531e+03     0.6418    85.1759     0.0495     0.0000  0.000e+00
      0.487    12.8451 207.748408    274.449    8.87367   83.99117 1.0662e+03     0.6527    84.9439     0.0498     0.0000  0.000e+00
      0.496    12.8412 207.778554    274.518    8.88070   84.05020 1.1752e+03     0.6560    84.8748     0.0488     0.0000  0.000e+00
      0.510    12.8425 207.868983    274.628    8.88210   84.06603 1.5181e+03     0.6518    84.9637     0.0495     0.0000  0.000e+00
      0.525    12.8514 208.803442    275.797    8.88105   84.07314 1.3542e+03     0.6611    84.7663     0.0545     0.0000  0.000e+00
      0.530    12.8631 209.557066    276.707    8.85175   83.81797 1.6476e+03     0.6627    84.7317     0.0546     0.0000  0.000e+00
      0.529    12.8642 209.768086    276.978    8.81611   83.48247 1.1277e+03     0.6614    84.7597     0.0538     0.0000  0.000e+00
      0.519    12.8870 209.737925    276.771    8.76327   83.02460 8.6355e+02     0.6623    84.7416     0.0510     0.0000  0.000e+00
      0.501    12.9108 209.346013    276.080    8.69742   82.44447 1.1467e+03     0.6563    84.8683     0.0488     0.0000  0.000e+00
      0.481    12.9252 208.863681    275.340    8.61934   81.73046 1.0865e+03     0.6505    84.9900     0.0500     0.0000  0.000e+00
      0.465    12.9295 208.501943    274.832    8.54694   81.05159 1.4972e+03     0.6573    84.8469     0.0517     0.0000  0.000e+00
      0.467    12.9217 208.290940    274.611    8.49082   80.50520 1.2675e+03     0.6471    85.0624     0.0533     0.0000  0.000e+00
      0.489    12.9096 208.501957    274.976    8.45844   80.17669 1.4557e+03     0.6495    85.0130     0.0544     0.0000  0.000e+00
      0.519    12.9026 209.346019    276.141    8.44221   80.01061 1.4613e+03     0.6506    84.9883     0.0524     0.0000  0.000e+00
      0.547    12.9028 209.918792    276.895    8.44258   80.01464 1.2100e+03     0.6506    84.9883     0.0505     0.0000  0.000e+00
      0.564    12.9056 210.340843    277.431    8.45290   80.11751 9.7007e+02     0.6564    84.8650     0.0495     0.0000  0.000e+00
      0.563    12.9646 210.401096    277.079    8.45000   80.19580 1.6800e+03     0.6616    84.7564     0.0536     0.0037  0.000e+00
      0.546    13.0677 210.340732    276.249    8.43852   80.27128 1.4321e+03     0.6458    85.0903     0.0546     0.0000  0.000e+00
      0.517    13.1499 209.798038    274.942    8.42120   80.25323 1.3889e+03     0.6981    83.9849     0.0531     0.0404  0.000e+00
      0.487    13.1793 209.436267    274.257    8.42562   80.34767 1.5496e+03     0.7024    83.8944     0.0500     0.0000  0.000e+00
      0.466    13.1833 209.164955    273.873    8.43863   80.47888 1.2345e+03     0.6666    84.6495     0.0517     0.0000  0.000e+00
      0.461    13.1669 209.014241    273.793    8.48842   80.92422 1.2579e+03     0.6602    84.7844     0.0534     0.0000  0.000e+00
      0.468    13.1284 209.436301    274.623    8.55268   81.46709 1.5801e+03     0.6451    85.1051     0.0543     0.0000  0.000e+00
      0.479    13.1042 210.129678    275.708    8.61989   82.06310 1.6966e+03     0.6621    84.7449     0.0523     0.0000  0.000e+00
      0.489    13.0878 210.280423    276.024    8.67037   82.51364 1.2992e+03     0.6828    84.3073     0.0504     0.0000  0.000e+00
      0.499    13.0924 210.370861    276.109    8.71408   82.93816 1.3241e+03     0.6624    84.7383     0.0515     0.0163  0.000e+00
      0.509    13.1382 210.461271    275.896    8.71539   83.03543 1.2688e+03     0.6488    85.0278     0.0571     0.0635  0.000e+00
      0.518    13.1882 210.461237    275.535    8.69167   82.90152 1.6680e+03     0.6398    85.2186     0.0568     0.1400  0.000e+00
      0.520    13.2189 210.340628    275.156    8.65290   82.58807 1.3843e+03     0.6455    85.0969     0.0578     0.1907  0.000e+00
      0.515    13.2349 210.280323    274.962    8.59854   82.09844 1.1771e+03     0.6681    84.6182     0.0561     0.0820  0.000e+00
      0.501    13.2418 210.370759    275.031    8.54162   81.56752 1.7900e+03     0.6798    84.3715     0.0529     0.0684  0.000e+00
      0.483    13.2489 210.400900    275.019    8.48833   81.07141 1.1407e+03     0.6731    84.5113     0.0496     0.0000  0.000e+00
      0.470    13.2558 210.129574    274.614    8.43953   80.61774 1.2334e+03     0.6624    84.7383     0.0492     0.0000  0.000e+00
      0.472    13.2589 209.858255    274.238    8.37951   80.04974 8.9083e+02     0.6618    84.7515     0.0517     0.0000  0.000e+00
      0.488    13.2445 209.797972    274.262    8.33181   79.56860 1.7555e+03     0.6607    84.7745     0.0518     0.0000  0.000e+00
      0.505    13.2248 210.400917    275.192    8.27800   79.02029 1.3022e+03     0.6846    84.2695     0.0525     0.0000  0.000e+00
      0.516    13.2169 210.642100    275.564    8.22459   78.49674 1.0762e+03     0.6633    84.7202     0.0525     0.0000  0.000e+00
      0.517    13.2167 210.672248    275.605    8.17328   78.00670 1.1032e+03     0.6664    84.6528     0.0521     0.0000  0.000e+00
      0.509    13.2511 210.702372    275.397    8.10653   77.42874 1.7207e+03     0.6583    84.8255     0.0497     0.0000  0.000e+00
      0.500    13.3097 210.461153    274.661    8.05032   76.99196 1.1676e+03     0.6453    85.1019     0.0488     0.0000  0.000e+00
      0.497    13.3461 210.219953    274.086    7.99722   76.54582 1.6656e+03     0.6440    85.1282     0.0483     0.0000  0.000e+00
      0.497    13.3561 210.159653    273.935    7.97702   76.36958 1.4338e+03     0.6533    84.9308     0.0471     0.0000  0.000e+00
      0.497    13.3478 210.370686    274.270    7.96419   76.23270 9.9650e+02     0.6621    84.7449     0.0506     0.1169  0.000e+00
      0.493    13.3405 210.611868    274.637    7.99522   76.51734 1.1465e+03     0.6464    85.0772     0.0533     0.2300  0.000e+00
      0.487    13.3326 210.762610    274.890    8.03685   76.90236 1.2443e+03     0.6554    84.8864     0.0524     0.0248  0.000e+00
      0.483    13.3195 210.792767    275.023    8.08867   77.37570 1.2795e+03     0.6675    84.6314     0.0528     0.0000  0.000e+00
      0.479    13.3119 210.732477    274.999    8.14110   77.86410 1.2009e+03     0.6616    84.7564     0.0520     0.0000  0.000e+00
      0.481    13.3080 210.762627    275.067    8.16948   78.12874 1.2562e+03     0.6605    84.7794     0.0510     0.0000  0.000e+00
      0.484    13.3047 210.672187    274.972    8.18259   78.24840 1.0316e+03     0.6728    84.5195     0.0520     0.0000  0.000e+00
      0.488    13.3024 210.762631    275.107    8.17715   78.19236 1.8100e+03     0.6676    84.6281     0.0515     0.0000  0.000e+00
      0.496    13.3013 210.672189    274.996    8.13128   77.75187 1.3780e+03     0.6548    84.8995     0.0508     0.0000  0.000e+00
      0.506    13.3017 210.762632    275.112    8.10102   77.46318 1.6857e+03     0.6500    85.0015     0.0494     0.0000  0.000e+00
      0.511    13.3024 210.913370    275.304    8.04344   76.91377 1.6548e+03     0.6462    85.0821     0.0507     0.0000  0.000e+00
      0.509    13.3050 211.003811    275.403    7.98504   76.35994 1.7530e+03     0.6406    85.2022     0.0513     0.0000  0.000e+00
      0.503    13.3126 211.033954    275.388    7.93237   75.86902 1.3405e+03     0.6453    85.1019     0.0529     0.0000  0.000e+00
      0.494    13.3376 210.853050    274.972    7.87721   75.38321 1.6064e+03     0.6507    84.9867     0.0535     0.0000  0.000e+00
      0.498    13.3655 210.521409    274.340    7.83283   75.00471 1.7882e+03     0.6711    84.5541     0.0531     0.0000  0.000e+00
      0.506    13.3783 210.430959    274.130    7.79099   74.62537 1.0599e+03     0.6569    84.8551     0.0525     0.0000  0.000e+00
      0.509    13.3732 210.792730    274.638    7.76341   74.35281 1.8714e+03     0.6454    85.0986     0.0528     0.0000  0.000e+00
      0.505    13.3638 210.943475    274.902    7.74289   74.14088 1.0174e+03     0.6756    84.4587     0.0523     0.0000  0.000e+00
      0.502    13.3533 210.973630    275.017    7.73432   74.04155 1.5207e+03     0.6521    84.9571     0.0527     0.0000  0.000e+00
      0.498    13.3698 210.913323    274.820    7.72024   73.93387 1.5154e+03     0.6521    84.9571     0.0536     0.0000  0.000e+00
      0.497    13.3984 210.672123    274.301    7.70857   73.86892 1.1241e+03     0.6629    84.7284     0.0528     0.0000  0.000e+00
      0.497    13.4185 210.672109    274.158    7.70582   73.87532 1.8256e+03     0.6689    84.6001     0.0546     0.0000  0.000e+00
      0.490    13.4245 210.852990    274.350    7.69396   73.77158 1.2872e+03     0.6595    84.8008     0.0555     0.0507  0.000e+00
      0.476    13.4312 210.973576    274.459    7.69668   73.80858 1.2149e+03     0.6688    84.6034     0.0564     0.0391  0.000e+00
      0.468    13.4340 210.943426    274.400    7.69078   73.75666 1.3576e+03     0.6505    84.9916     0.0557     0.3633  0.000e+00
      0.473    13.4322 210.732394    274.138    7.68301   73.67909 1.3526e+03     0.6541    84.9143     0.0546     0.2783  0.000e+00
      0.485    13.4296 210.702249    274.117    7.67894   73.63593 1.0354e+03     0.6605    84.7778     0.0558     0.1443  0.000e+00
      0.499    13.4261 210.792694    274.260    7.67587   73.60070 1.3089e+03     0.6606    84.7761     0.0555     0.0441  0.000e+00
      0.508    13.4223 211.003731    274.562    7.67434   73.57986 1.0117e+03     0.6641    84.7021     0.0544     0.0419  0.000e+00
      0.511    13.4178 211.094177    274.712    7.68378   73.66305 1.1580e+03     0.6556    84.8831     0.0549     0.0384  0.000e+00
      0.510    13.4126 211.124329    274.789    7.69671   73.77850 1.2795e+03     0.6425    85.1611     0.0546     0.0000  0.000e+00
      0.511    13.4226 211.154470    274.756    7.69744   73.80197 1.2520e+03     0.6401    85.2121     0.0582     0.0636  0.000e+00
      0.508    13.4348 211.124314    274.630    7.70197   73.86529 1.5737e+03     0.6598    84.7942     0.0577     0.0974  0.000e+00
      0.497    13.4415 211.033865    274.464    7.70570   73.91207 1.3914e+03     0.6491    85.0212     0.0552     0.0000  0.000e+00
      0.486    13.4459 210.913271    274.276    7.70626   73.92450 1.3220e+03     0.6574    84.8436     0.0545     0.0219  0.000e+00
      0.478    13.4492 210.852973    274.174    7.69553   73.82704 1.2983e+03     0.6574    84.8436     0.0542     0.1492  0.000e+00
      0.478    13.4524 210.792676    274.073    7.69139   73.79247 1.5649e+03     0.6486    85.0311     0.0529     0.2536  0.000e+00
      0.486    13.4482 210.913269    274.259    7.67775   73.65482 8.4926e+02     0.6451    85.1068     0.0540     0.2762  0.000e+00
      0.497    13.4448 211.124307    274.558    7.67020   73.57691 1.5952e+03     0.6526    84.9456     0.0520     0.2794  0.000e+00
      0.504    13.4430 211.214752    274.689    7.66605   73.53416 1.4615e+03     0.6535    84.9275     0.0515     0.2773  0.000e+00
      0.510    13.4395 211.214755    274.713    7.65594   73.43152 1.8378e+03     0.6488    85.0278     0.0503     0.0117  0.000e+00
      0.507    13.4417 211.214753    274.698    7.64266   73.30765 1.5594e+03     0.6575    84.8419     0.0508     0.0000  0.000e+00
      0.495    13.4535 211.335338    274.770    7.62735   73.18000 1.2786e+03     0.6567    84.8584     0.0502     0.0000  0.000e+00
      0.481    13.4680 211.275031    274.588    7.60798   73.01766 1.3400e+03     0.6410    85.1940     0.0505     0.0000  0.000e+00
      0.467    13.4837 211.214724    274.398    7.58878   72.85867 1.2308e+03     0.6501    84.9999     0.0506     0.0000  0.000e+00
      0.460    13.4867 210.913242    273.985    7.57561   72.73687 1.4054e+03     0.6517    84.9653     0.0518     0.0000  0.000e+00
      0.463    13.4829 210.732359    273.777    7.55896   72.57091 1.7907e+03     0.6585    84.8222     0.0523     0.0000  0.000e+00
      0.474    13.4750 210.792660    273.912    7.54695   72.44290 1.3128e+03     0.6451    85.1051     0.0505     0.0000  0.000e+00
      0.487    13.4638 210.973554    274.227    7.54513   72.40752 1.2417e+03     0.6461    85.0838     0.0510     0.0000  0.000e+00
      0.502    13.4551 211.154448    274.524    7.55239   72.46328 1.6235e+03     0.6558    84.8781     0.0521     0.0000  0.000e+00
      0.518    13.4424 211.214753    274.693    7.56755   72.58835 1.6464e+03     0.6498    85.0048     0.0559     0.0000  0.000e+00
      0.525    13.4444 211.214752    274.678    7.57748   72.68688 1.4106e+03     0.6515    84.9703     0.0574     0.0000  0.000e+00
      0.524    13.4649 211.335331    274.689    7.59538   72.89166 1.6263e+03     0.6396    85.2236     0.0581     0.0386  0.000e+00
      0.516    13.4891 211.124277    274.242    7.62917   73.25506 1.1465e+03     0.6475    85.0558     0.0581     0.1296  0.000e+00
      0.509    13.5022 211.033824    274.031    7.67819   73.74711 1.3197e+03     0.6541    84.9143     0.0529     0.1054  0.000e+00
      0.501    13.5096 211.063966    274.018    7.72829   74.24046 1.1814e+03     0.6521    84.9571     0.0553     0.0569  0.000e+00
      0.497    13.5165 211.094109    274.007    7.77314   74.68285 9.9353e+02     0.6516    84.9670     0.0571     0.0000  0.000e+00
      0.497    13.5192 211.003664    273.871    7.81637   75.10262 1.3652e+03     0.6492    85.0180     0.0600     0.0000  0.000e+00
      0.514    13.5165 210.852927    273.695    7.85474   75.46665 1.2913e+03     0.6701    84.5755     0.0591     0.0325  0.000e+00
      0.532    13.5113 210.913227    273.810    7.87917   75.69276 1.9166e+03     0.6727    84.5212     0.0594     0.1201  0.000e+00
      0.544    13.5028 211.154416    274.183    7.90170   75.89501 1.1303e+03     0.6534    84.9291     0.0672     0.1638  0.000e+00
      0.542    13.4941 211.275014    274.402    7.91977   76.05390 1.0625e+03     0.6413    85.1857     0.0670     0.1575  0.000e+00
      0.523    13.5018 211.275009    274.347    7.93144   76.17899 1.8570e+03     0.6495    85.0130     0.0700     0.0934  0.000e+00
      0.491    13.5390 211.033798    273.770    7.93560   76.28161 1.1656e+03     0.6410    85.1940     0.0639     0.0265  0.000e+00
      0.467    13.5702 210.792595    273.235    7.95464   76.51734 1.3907e+03     0.6427    85.1578     0.0706     0.0400  0.000e+00
      0.454    13.5732 210.672003    273.058    7.99851   76.94432 1.7589e+03     0.6429    85.1528     0.0655     0.0357  0.000e+00
      0.453    13.5476 210.641873    273.200    8.08979   77.77845 1.6303e+03     0.6432    85.1463     0.0597     0.1682  0.000e+00
      0.464    13.5175 210.913221    273.766    8.21201   78.90105 1.2981e+03     0.6571    84.8502     0.0581     0.1126  0.000e+00
      0.479    13.4887 211.063980    274.167    8.35532   80.22682 1.1672e+03     0.6453    85.1019     0.0572     0.0005  0.000e+00
      0.502    13.4577 211.154446    274.505    8.48835   81.44824 1.0732e+03     0.6537    84.9226     0.0561     0.0380  0.000e+00
      0.529    13.4505 211.154451    274.557    8.60723   82.57577 1.3365e+03     0.6544    84.9077     0.0572     0.0547  0.000e+00
      0.549    13.4531 211.275043    274.695    8.69629   83.43513 1.0547e+03     0.6460    85.0870     0.0592     0.1315  0.000e+00
      0.555    13.4630 211.214740    274.546    8.74439   83.91492 9.4650e+02     0.6588    84.8156     0.0539     0.2082  0.000e+00
      0.547    13.4842 211.335318    274.551    8.74134   83.92514 9.2806e+02     0.6509    84.9818     0.0538     0.2132  0.000e+00
      0.524    13.5156 211.274999    274.249    8.71333   83.71438 1.1271e+03     0.6462    85.0821     0.0540     0.1278  0.000e+00
      0.500    13.5466 210.973497    273.637    8.66062   83.26495 1.1392e+03     0.6412    85.1890     0.0532     0.0248  0.000e+00
      0.487    13.5600 210.792602    273.308    8.60145   82.72046 1.5823e+03     0.6413    85.1857     0.0532     0.0000  0.000e+00
      0.479    13.5582 210.792603    273.320    8.54268   82.15202 1.1935e+03     0.6431    85.1479     0.0520     0.0000  0.000e+00
      0.479    13.5392 210.913207    273.612    8.49722   81.68053 1.1433e+03     0.6369    85.2795     0.0497     0.0000  0.000e+00
      0.481    13.5240 211.124252    273.994    8.45019   81.20115 1.6607e+03     0.6482    85.0393     0.0492     0.0000  0.000e+00
      0.487    13.5046 211.154413    274.170    8.42120   80.88799 1.2746e+03     0.6502    84.9982     0.0517     0.0391  0.000e+00
      0.499    13.4918 211.124275    274.223    8.40747   80.73312 1.1301e+03     0.6763    84.4455     0.0504     0.0000  0.000e+00
      0.512    13.4914 211.033831    274.108    8.39788   80.64039 1.4379e+03     0.6591    84.8090     0.0455     0.0000  0.000e+00
      0.520    13.4914 211.154423    274.265    8.40320   80.69143 1.0401e+03     0.6688    84.6034     0.0464     0.0000  0.000e+00
      0.521    13.4969 211.154419    274.226    8.40867   80.75374 2.0002e+03     0.6644    84.6972     0.0482     0.0000  0.000e+00
      0.514    13.5069 211.154412    274.154    8.41485   80.83108 1.1564e+03     0.6604    84.7811     0.0484     0.0000  0.000e+00
      0.505    13.5195 211.094108    273.986    8.40146   80.72493 1.2981e+03     0.6456    85.0953     0.0510     0.0427  0.000e+00
      0.501    13.5301 210.913213    273.676    8.39048   80.63828 1.3672e+03     0.6452    85.1035     0.0512     0.0000  0.000e+00
      0.499    13.5353 210.973505    273.717    8.36884   80.43962 2.3298e+03     0.6380    85.2565     0.0484     0.0000  0.000e+00
      0.496    13.5393 211.063946    273.807    8.32912   80.06486 1.2970e+03     0.6521    84.9571     0.0482     0.0434  0.000e+00
      0.492    13.5437 211.033795    273.736    8.28836   79.68093 1.2956e+03     0.6423    85.1660     0.0492     0.0636  0.000e+00
      0.491    13.5415 211.063944    273.791    8.24218   79.23292 1.5151e+03     0.6410    85.1923     0.0510     0.1913  0.000e+00
      0.499    13.5378 211.033799    273.778    8.18679   78.69403 1.7922e+03     0.6371    85.2762     0.0525     0.1411  0.000e+00
      0.509    13.5353 211.003653    273.757    8.13120   78.15534 1.6531e+03     0.6505    84.9916     0.0508     0.0929  0.000e+00
      0.515    13.5324 211.094099    273.894    8.07972   77.65568 1.5336e+03     0.6447    85.1134     0.0504     0.1404  0.000e+00
      0.518    13.5291 211.154397    273.996    8.02421   77.11647 1.0390e+03     0.6444    85.1216     0.0527     0.0982  0.000e+00
      0.514    13.5270 211.154399    274.011    7.97083   76.59996 1.3880e+03     0.6478    85.0492     0.0541     0.0496  0.000e+00
      0.510    13.5274 211.154398    274.009    7.92066   76.11842 1.6546e+03     0.6415    85.1825     0.0536     0.1778  0.000e+00
      0.503    13.5276 211.154398    274.007    7.87278   75.65874 1.2931e+03     0.6602    84.7844     0.0551     0.1646  0.000e+00
      0.497    13.5283 211.154397    274.002    7.83111   75.25946 1.0634e+03     0.6516    84.9670     0.0536     0.1793  0.000e+00
      0.492    13.5293 211.063953    273.878    7.80183   74.97960 1.1194e+03     0.6482    85.0393     0.0521     0.1077  0.000e+00
      0.491    13.5274 210.973510    273.774    7.76824   74.65359 1.3469e+03     0.6448    85.1117     0.0494     0.1054  0.000e+00
      0.495    13.5229 210.913218    273.727    7.74225   74.39650 1.2276e+03     0.6396    85.2219     0.0542     0.0000  0.000e+00
      0.500    13.5210 211.033811    273.897    7.71184   74.10124 1.0616e+03     0.6405    85.2038     0.0610     0.0000  0.000e+00
      0.501    13.5203 211.124255    274.020    7.68818   73.87274 1.5082e+03     0.6441    85.1265     0.0594     0.0000  0.000e+00
      0.499    13.5165 211.214702    274.164    7.66395   73.63368 1.4628e+03     0.6608    84.7729     0.0565     0.0000  0.000e+00
      0.493    13.5181 211.154404    274.075    7.63794   73.38638 1.2254e+03     0.6560    84.8748     0.0550     0.0000  0.000e+00
      0.489    13.5310 211.033804    273.826    7.61446   73.18167 1.5173e+03     0.6661    84.6594     0.0523     0.0000  0.000e+00
      0.483    13.5481 211.063940    273.744    7.59805   73.05157 8.8974e+02     0.6594    84.8025     0.0498     0.0000  0.000e+00
      0.472    13.5604 211.033783    273.618    7.58381   72.93442 1.0865e+03     0.6495    85.0114     0.0515     0.0000  0.000e+00
      0.457    13.5653 211.063927    273.622    7.57542   72.86175 1.2160e+03     0.6587    84.8173     0.0507     0.0000  0.000e+00
      0.452    13.5687 211.033777    273.559    7.56639   72.78031 1.1477e+03     0.6523    84.9538     0.0511     0.2657  0.000e+00
      0.464    13.5674 210.762449    273.216    7.55671   72.68503 1.4338e+03     0.6530    84.9374     0.0502     0.0893  0.000e+00
      0.495    13.5534 210.732312    273.276    7.54436   72.54378 1.6022e+03     0.6479    85.0459     0.0485     0.0755  0.000e+00
      0.527    13.5170 210.852927    273.691    7.53035   72.35081 8.9601e+02     0.6453    85.1019     0.0495     0.0000  0.000e+00
      0.545    13.4797 211.063988    274.231    7.52691   72.25809 1.1112e+03     0.6654    84.6758     0.0505     0.0153  0.000e+00
      0.544    13.4577 211.214743    274.584    7.52175   72.17346 1.0360e+03     0.6706    84.5656     0.0530     0.0000  0.000e+00
      0.528    13.4934 211.154422    274.251    7.51762   72.19084 1.0352e+03     0.6519    84.9620     0.0510     0.0392  0.000e+00
      0.507    13.5412 210.913206    273.597    7.53384   72.42310 1.5194e+03     0.6407    85.1989     0.0494     0.0000  0.000e+00
      0.486    13.5579 210.792603    273.323    7.59545   73.04227 1.6059e+03     0.6434    85.1430     0.0515     0.0000  0.000e+00
      0.471    13.5556 210.672015    273.182    7.72199   74.25537 1.5377e+03     0.6453    85.1019     0.0505     0.0000  0.000e+00
      0.462    13.5325 210.641883    273.307    7.89566   75.88667 1.6217e+03     0.6451    85.1068     0.0499     0.0000  0.000e+00
      0.461    13.4972 210.732349    273.675    8.07851   77.58345 1.4750e+03     0.6460    85.0870     0.0512     0.0000  0.000e+00
      0.466    13.4722 210.913252    274.088    8.24826   79.17004 1.3321e+03     0.6413    85.1857     0.0520     0.0266  0.000e+00
      0.474    13.4582 210.973558    274.267    8.39243   80.52874 1.1823e+03     0.6434    85.1413     0.0538     0.1569  0.000e+00
      0.482    13.4385 210.943423    274.368    8.50947   81.61623 1.3346e+03     0.6406    85.2006     0.0549     0.1025  0.000e+00
      0.488    13.4373 210.973572    274.416    8.55517   82.05226 1.2358e+03     0.6379    85.2598     0.0549     0.0000  0.000e+00
      0.493    13.4570 211.003707    274.314    8.55970   82.13157 1.3142e+03     0.6483    85.0377     0.0566     0.0000  0.000e+00
      0.496    13.4753 210.913251    274.066    8.51456   81.73152 1.2513e+03     0.6481    85.0426     0.0559     0.0000  0.000e+00
      0.499    13.4845 210.852949    273.922    8.45488   81.17519 1.1935e+03     0.6440    85.1298     0.0523     0.0000  0.000e+00
      0.504    13.4853 210.852949    273.917    8.37663   80.42542 1.5090e+03     0.6325    85.3749     0.0510     0.0000  0.000e+00
      0.510    13.4852 210.792654    273.839    8.29333   79.62547 1.1564e+03     0.6473    85.0591     0.0494     0.0000  0.000e+00
      0.514    13.4878 210.913242    273.977    8.20549   78.78658 1.3443e+03     0.6461    85.0838     0.0493     0.0678  0.000e+00
      0.519    13.4947 210.973533    274.007    8.11404   77.92039 1.6346e+03     0.6380    85.2565     0.0491     0.1509  0.000e+00
      0.520    13.4999 211.003678    274.008    8.03896   77.20829 1.5229e+03     0.6319    85.3881     0.0481     0.0807  0.000e+00
      0.518    13.5027 211.033824    274.028    7.96538   76.50642 1.7285e+03     0.6299    85.4292     0.0513     0.0000  0.000e+00
      0.508    13.5061 211.003673    273.964    7.89424   75.82875 1.0021e+03     0.6394    85.2269     0.0520     0.0000  0.000e+00
      0.492    13.5093 210.973523    273.902    7.83710   75.28532 1.3863e+03     0.6466    85.0739     0.0511     0.0000  0.000e+00
      0.477    13.5114 210.852930    273.731    7.78301   74.76907 9.3871e+02     0.6342    85.3387     0.0496     0.0000  0.000e+00
      0.470    13.5106 210.732340    273.580    7.73721   74.32784 1.2388e+03     0.6329    85.3667     0.0504     0.0019  0.000e+00
      0.475    13.5072 210.702196    273.565    7.69912   73.95625 1.7784e+03     0.6373    85.2729     0.0490     0.0000  0.000e+00
      0.487    13.4977 210.732350    273.672    7.66220   73.58611 1.5952e+03     0.6516    84.9686     0.0525     0.0000  0.000e+00
      0.499    13.4910 210.913240    273.954    7.62927   73.25916 1.6127e+03     0.6343    85.3354     0.0526     0.0000  0.000e+00
      0.512    13.4860 210.913244    273.990    7.60487   73.01667 1.0995e+03     0.6498    85.0064     0.0512     0.0000  0.000e+00
      0.522    13.4826 210.943394    274.053    7.58134   72.78542 1.3640e+03     0.6365    85.2894     0.0508     0.0000  0.000e+00
      0.526    13.4907 210.973536    274.034    7.55727   72.56734 1.1129e+03     0.6391    85.2335     0.0518     0.0000  0.000e+00
      0.524    13.5056 210.943378    273.890    7.53502   72.37750 1.7989e+03     0.6333    85.3568     0.0536     0.0000  0.000e+00
      0.516    13.5185 210.913221    273.759    7.51700   72.22491 1.2106e+03     0.6336    85.3519     0.0538     0.0000  0.000e+00
      0.507    13.5216 210.852924    273.659    7.50255   72.09098 1.0088e+03     0.6465    85.0755     0.0518     0.0982  0.000e+00
      0.500    13.5216 210.732334    273.502    7.49292   71.99849 1.3265e+03     0.6396    85.2236     0.0498     0.1021  0.000e+00
      0.492    13.5201 210.762482    273.552    7.48481   71.91809 1.1423e+03     0.6511    84.9785     0.0475     0.0000  0.000e+00
      0.486    13.5167 210.792632    273.615    7.47141   71.78413 1.3438e+03     0.6458    85.0903     0.0502     0.0000  0.000e+00
      0.481    13.5171 210.792631    273.612    7.44542   71.53500 2.1709e+03     0.6579    84.8337     0.0508     0.0000  0.000e+00
      0.482    13.5185 210.913221    273.759    7.42094   71.30193 1.5899e+03     0.6373    85.2713     0.0492     0.0000  0.000e+00
      0.490    13.5176 210.792631    273.608    7.40385   71.13645 1.7047e+03     0.6328    85.3683     0.0481     0.0569  0.000e+00
      0.501    13.5147 210.762486    273.590    7.36696   70.77737 9.8466e+02     0.6374    85.2696     0.0484     0.0694  0.000e+00
      0.511    13.5115 210.792636    273.652    7.34797   70.58994 1.0418e+03     0.6417    85.1775     0.0481     0.0300  0.000e+00
      0.513    13.5096 210.913228    273.822    7.31867   70.30554 1.6309e+03     0.6495    85.0130     0.0482     0.0000  0.000e+00
      0.513    13.5076 210.852934    273.758    7.29863   70.10992 1.7816e+03     0.6383    85.2499     0.0494     0.0385  0.000e+00
      0.516    13.5081 210.792638    273.676    7.28381   69.96824 1.5458e+03     0.6302    85.4226     0.0489     0.2390  0.000e+00
      0.521    13.5117 210.732341    273.572    7.27329   69.87282 2.1474e+03     0.6355    85.3108     0.0492     0.3014  0.000e+00
      0.524    13.5134 210.762487    273.599    7.26366   69.78296 1.8450e+03     0.6325    85.3749     0.0497     0.2847  0.000e+00
      0.521    13.5147 210.732339    273.551    7.25984   69.74821 1.0758e+03     0.6361    85.2976     0.0505     0.1428  0.000e+00
      0.512    13.5187 210.852926    273.679    7.24514   69.61314 9.0138e+02     0.6357    85.3058     0.0508     0.0621  0.000e+00
      0.499    13.5228 210.792628    273.572    7.23652   69.53661 1.1829e+03     0.6333    85.3568     0.0512     0.0764  0.000e+00
      0.485    13.5232 210.852922    273.647    7.22742   69.44977 1.3167e+03     0.6492    85.0196     0.0504     0.1546  0.000e+00
      0.475    13.5204 210.611744    273.354    7.21785   69.35352 1.5141e+03     0.6312    85.4012     0.0500     0.0000  0.000e+00
      0.475    13.5168 210.581600    273.340    7.20771   69.25061 1.2679e+03     0.6297    85.4341     0.0492     0.0430  0.000e+00
      0.483    13.5141 210.611749    273.398    7.19718   69.14534 1.0659e+03     0.6444    85.1199     0.0479     0.0000  0.000e+00
      0.495    13.5095 210.672047    273.510    7.18705   69.04086 1.5704e+03     0.6441    85.1265     0.0494     0.0000  0.000e+00
      0.504    13.5052 210.792640    273.697    7.18116   68.97777 1.1255e+03     0.6505    84.9900     0.0521     0.0000  0.000e+00
      0.509    13.5024 210.792642    273.716    7.17634   68.92731 1.3943e+03     0.6390    85.2367     0.0521     0.1199  0.000e+00
      0.511    13.5037 210.792641    273.707    7.17798   68.94506 1.0199e+03     0.6349    85.3239     0.0524     0.3352  0.000e+00
      0.514    13.5097 210.732342    273.587    7.17344   68.91042 1.7973e+03     0.6320    85.3848     0.0526     0.2386  0.000e+00
      0.516    13.5160 210.641896    273.424    7.17933   68.97669 1.3486e+03     0.6362    85.2943     0.0506     0.0386  0.000e+00
      0.515    13.5216 210.672039    273.424    7.17869   68.97906 1.1668e+03     0.6443    85.1232     0.0500     0.0390  0.000e+00
      0.508    13.5245 210.762479    273.521    7.18265   69.02156 1.4138e+03     0.6454    85.0986     0.0506     0.0000  0.000e+00
      0.500    13.5245 210.732332    273.481    7.18979   69.09025 1.0580e+03     0.6626    84.7350     0.0545     0.0000  0.000e+00
      0.498    13.5207 210.702187    273.469    7.19499   69.13438 1.3708e+03     0.6511    84.9785     0.0528     0.0017  0.000e+00
      0.505    13.5147 210.611749    273.394    7.19020   69.07909 1.0955e+03     0.6438    85.1331     0.0539     0.1451  0.000e+00
      0.517    13.5085 210.581606    273.399    7.19295   69.09609 1.2550e+03     0.6358    85.3042     0.0526     0.1405  0.000e+00
      0.529    13.5033 210.672052    273.554    7.18941   69.05409 1.2399e+03     0.6879    84.2004     0.0528     0.0790  0.000e+00
      0.533    13.4997 210.762497    273.696    7.18366   68.99353 1.0751e+03     0.6581    84.8304     0.0515     0.0000  0.000e+00
      0.543    13.4971 210.672056    273.598    7.17984   68.95272 1.3816e+03     0.6672    84.6363     0.0485     0.0000  0.000e+00
      0.569    13.4923 210.641913    273.593    7.17617   68.91011 1.5625e+03     0.6503    84.9949     0.0536     0.1018  0.000e+00
      0.597    13.4871 210.551475    273.512    7.17731   68.91320 9.5939e+02     0.6407    85.1989     0.0555     0.1438  0.000e+00
      0.620    13.4842 210.641919    273.650    7.17852   68.92037 9.2107e+02     0.6516    84.9670     0.0545     0.0108  0.000e+00
      0.659    13.4822 210.521333    273.508    7.18537   68.98304 8.2557e+02     0.6374    85.2696     0.0520     0.0037  0.000e+00
      0.712    13.4771 210.400749    273.387    7.18955   69.01539 1.4639e+03     0.6499    85.0032     0.0508     0.0284  0.000e+00
      0.757    13.4429 210.491214    273.748    7.19464   69.01202 1.5229e+03     0.6318    85.3897     0.0497     0.0356  0.000e+00
      0.806    13.4091 210.400797    273.871    7.21390   69.14492 1.4064e+03     0.6457    85.0936     0.0494     0.0538  0.000e+00
      0.869    13.3637 210.340536    274.117    7.24170   69.34154 1.2312e+03     0.6449    85.1101     0.0465     0.1382  0.000e+00
      0.930    13.2886 210.340588    274.655    7.27559   69.55000 1.1588e+03     0.6609    84.7696     0.0480     0.1377  0.000e+00
      0.990    13.2347 210.431067    275.161    7.29647   69.66604 1.0245e+03     0.6764    84.4422     0.0478     0.1049  0.000e+00
      1.040    13.1964 210.551683    275.595    7.32211   69.85134 1.7050e+03     0.6487    85.0295     0.0503     0.0583  0.000e+00
      1.075    13.1714 210.581848    275.814    7.33087   69.89612 6.0301e+02     0.6551    84.8929     0.0514     0.0591  0.000e+00
      1.099    13.2007 210.672270    275.721    7.32535   69.88893 1.2211e+03     0.6349    85.3223     0.0505     0.0755  0.000e+00
      1.115    13.2601 210.551641    275.136    7.30267   69.76466 1.3816e+03     0.6413    85.1874     0.0520     0.1128  0.000e+00
      1.137    13.3071 210.340580    274.522    7.28283   69.64776 7.6456e+02     0.6439    85.1315     0.0541     0.1229  0.000e+00
      1.174    13.3291 210.159685    274.129    7.27746   69.63034 1.3314e+03     0.6462    85.0821     0.0533     0.0855  0.000e+00
      1.221    13.3056 210.039116    274.139    7.27723   69.59192 8.2688e+02     0.6379    85.2581     0.0531     0.0516  0.000e+00
      1.280    13.2573 210.009003    274.446    7.30079   69.74233 1.0582e+03     0.6403    85.2088     0.0516     0.0362  0.000e+00
      1.337    13.2091 210.159770    274.990    7.33545   69.99833 7.6671e+02     0.6417    85.1775     0.0516     0.0372  0.000e+00
      1.387    13.1875 210.370813    275.422    7.36925   70.28712 7.6067e+02     0.6495    85.0114     0.0511     0.0249  0.000e+00
      1.429    13.1718 210.400972    275.574    7.40307   70.58510 7.7022e+02     0.6415    85.1825     0.0519     0.0414  0.000e+00
      1.471    13.1556 210.370837    275.652    7.43742   70.88693 8.9177e+02     0.6379    85.2581     0.0518     0.0825  0.000e+00
      1.507    13.1693 210.400975    275.593    7.45492   71.07554 1.1451e+03     0.6518    84.9637     0.0508     0.0925  0.000e+00
      1.544    13.1829 210.129645    275.139    7.46907   71.23184 6.7739e+02     0.6489    85.0245     0.0526     0.0596  0.000e+00
      1.586    13.1820 209.978914    274.948    7.47529   71.28966 9.2903e+02     0.6418    85.1759     0.0521     0.0448  0.000e+00
      1.631    13.1740 209.918628    274.927    7.48036   71.32538 6.2611e+02     0.6379    85.2598     0.0525     0.0336  0.000e+00
      1.675    13.1578 209.978933    275.123    7.48641   71.35736 7.2671e+02     0.6454    85.1002     0.0529     0.0271  0.000e+00
      1.724    13.1455 209.978942    275.211    7.50427   71.50797 1.3186e+03     0.6389    85.2384     0.0521     0.0257  0.000e+00
      1.776    13.1311 210.069392    275.434    7.52578   71.69009 5.8137e+02     0.6417    85.1792     0.0511     0.0194  0.000e+00
      1.822    13.1207 210.280427    275.786    7.54736   71.87893 7.8209e+02     0.6516    84.9670     0.0517     0.0167  0.000e+00
      1.868    13.1069 210.220144    275.806    7.57077   72.07979 7.0868e+02     0.6386    85.2450     0.0515     0.0202  0.000e+00
      1.909    13.0911 210.280449    276.001    7.58251   72.16603 7.6982e+02     0.6321    85.3831     0.0508     0.0166  0.000e+00
      1.945    13.0793 210.220164    276.007    7.58936   72.21232 6.0662e+02     0.6349    85.3239     0.0530     0.0148  0.000e+00
      1.976    13.0726 210.280463    276.135    7.58459   72.15609 8.7624e+02     0.6373    85.2713     0.0526     0.0187  0.000e+00
      2.006    13.0697 210.280465    276.156    7.56505   71.96551 1.1090e+03     0.6339    85.3437     0.0498     0.0163  0.000e+00
      2.039    13.0693 210.099586    275.921    7.54345   71.75947 5.2735e+02     0.6352    85.3173     0.0507     0.0194  0.000e+00
      2.076    13.0693 210.009147    275.802    7.51580   71.49641 6.3531e+02     0.6268    85.4967     0.0506     0.0240  0.000e+00
      2.119    13.0690 210.039295    275.844    7.48764   71.22799 1.1814e+03     0.6356    85.3091     0.0500     0.0237  0.000e+00
      2.169    13.0689 209.979003    275.765    7.46371   71.00023 6.2260e+02     0.6437    85.1364     0.0517     0.0227  0.000e+00
      2.222    13.0666 210.039298    275.861    7.44545   70.82295 7.7144e+02     0.6333    85.3568     0.0516     0.0200  0.000e+00
      2.274    13.0616 210.039303    275.898    7.42409   70.61177 8.1692e+02     0.6495    85.0114     0.0523     0.0187  0.000e+00
      2.324    13.0595 210.129745    276.032    7.41073   70.48145 6.1998e+02     0.6481    85.0426     0.0525     0.0183  0.000e+00
      2.368    13.0601 210.159892    276.067    7.39636   70.34579 6.0492e+02     0.6436    85.1380     0.0538     0.0243  0.000e+00
      2.403    13.0617 210.220185    276.134    7.38355   70.22647 6.0036e+02     0.6348    85.3256     0.0521     0.0241  0.000e+00
      2.436    13.0615 210.159892    276.056    7.37279   70.12385 6.7715e+02     0.6302    85.4243     0.0510     0.0228  0.000e+00
      2.468    13.0605 210.129747    276.024    7.35601   69.96261 6.2479e+02     0.6374    85.2696     0.0507     0.0193  0.000e+00
      2.500    13.0610 210.099601    275.981    7.33405   69.75461 6.8818e+02     0.6461    85.0838     0.0514     0.0214  0.000e+00
      2.541    13.0615 209.918723    275.740    7.31327   69.55769 6.4013e+02     0.6364    85.2910     0.0526     0.0233  0.000e+00
      2.583    13.0566 209.979019    275.854    7.29119   69.34013 8.3888e+02     0.6353    85.3141     0.0552     0.0246  0.000e+00
      2.621    13.0504 210.129757    276.098    7.27162   69.14445 5.8567e+02     0.6417    85.1792     0.0549     0.0218  0.000e+00
      2.666    13.0491 209.918734    275.830    7.25627   68.99640 6.7703e+02     0.6562    84.8699     0.0555     0.0172  0.000e+00
      2.713    13.0437 209.979031    275.948    7.24072   68.84022 5.9511e+02     0.6654    84.6742     0.0558     0.0174  0.000e+00
      2.753    13.0361 210.039330    276.083    7.23627   68.78626 6.2534e+02     0.6817    84.3304     0.0566     0.0150  0.000e+00
      2.797    13.0344 210.069478    276.135    7.22681   68.69378 6.4328e+02     0.6859    84.2432     0.0568     0.0150  0.000e+00
      2.841    13.0307 210.039335    276.122    7.22239   68.64603 6.9292e+02     0.7039    83.8632     0.0568     0.0163  0.000e+00
      2.880    13.0281 210.009191    276.101    7.21347   68.55734 5.4191e+02     0.7056    83.8286     0.0565     0.0156  0.000e+00
      2.916    13.0295 210.099630    276.210    7.19716   68.40446 5.0239e+02     0.7085    83.7678     0.0596     0.0175  0.000e+00
      2.952    13.0323 210.069483    276.150    7.18068   68.25208 5.1454e+02     0.7095    83.7464     0.0628     0.0172  0.000e+00
      2.992    13.0346 210.039335    276.093    7.16166   68.07477 5.9742e+02     0.7174    83.5819     0.0635     0.0172  0.000e+00
      3.034    13.0351 209.918750    275.931    7.13719   67.84294 5.9721e+02     0.7219    83.4865     0.0630     0.0150  0.000e+00
      3.078    13.0351 209.979044    276.011    7.10887   67.57370 5.3154e+02     0.7193    83.5424     0.0649     0.0157  0.000e+00
      3.122    13.0343 209.979045    276.017    7.08395   67.33556 5.8960e+02     0.7305    83.3072     0.0658     0.0175  0.000e+00
      3.165    13.0334 210.009193    276.062    7.06065   67.11287 5.3982e+02     0.7332    83.2529     0.0651     0.0178  0.000e+00
      3.206    13.0347 210.159926    276.251    7.04610   66.97648 5.3642e+02     0.7444    83.0193     0.0653     0.0181  0.000e+00
      3.243    13.0364 210.069486    276.120    7.02859   66.81267 5.4746e+02     0.7480    82.9436     0.0645     0.0189  0.000e+00
      3.277    13.0377 210.099632    276.150    7.01106   66.64789 5.8784e+02     0.7658    82.5768     0.0658     0.0205  0.000e+00
      3.306    13.0394 210.069485    276.098    6.99946   66.54015 5.7973e+02     0.7631    82.6327     0.0668     0.0181  0.000e+00
      3.335    13.0405 210.099631    276.130    6.97947   66.35173 5.1246e+02     0.7708    82.4731     0.0658     0.0159  0.000e+00
      3.363    13.0416 210.009192    276.003    6.95593   66.12949 3.9916e+02     0.7757    82.3712     0.0670     0.0173  0.000e+00
      3.396    13.0432 209.918752    275.872    6.93376   65.92110 5.0807e+02     0.7689    82.5126     0.0684     0.0162  0.000e+00
      3.444    13.0433 209.707730    275.594    6.91167   65.71124 5.5628e+02     0.7736    82.4156     0.0763     0.0169  0.000e+00
      3.505    13.0258 209.376139    275.285    6.89020   65.48137 3.8335e+02     0.7769    82.3465     0.0771     0.0188  0.000e+00
      3.569    12.8903 209.014489    275.793    6.90205   65.39572 4.0716e+02     0.7769    82.3465     0.0748     0.0177  0.000e+00
      3.635    12.6597 208.863923    277.282    6.94208   65.43590 5.0700e+02     0.7773    82.3399     0.0741     0.0177  0.000e+00
      3.691    12.4449 209.135375    279.235    7.01813   65.83386 6.0886e+02     0.7749    82.3893     0.0757     0.0175  0.000e+00
      3.733    12.3350 209.436905    280.461    7.09988   66.43576 4.2158e+02     0.7810    82.2626     0.0776     0.0187  0.000e+00
      3.766    12.2762 209.647967    281.187    7.19817   67.26618 4.0346e+02     0.7876    82.1277     0.0772     0.0184  0.000e+00
      3.793    12.2138 209.617864    281.618    7.28638   67.99446 3.9221e+02     0.7838    82.2050     0.0758     0.0174  0.000e+00
      3.820    12.1674 209.437021    281.726    7.36192   68.62713 4.2792e+02     0.7911    82.0553     0.0739     0.0175  0.000e+00
      3.848    12.1238 209.195887    281.732    7.41517   69.05525 5.5278e+02     0.7942    81.9912     0.0740     0.0183  0.000e+00
      3.875    12.0952 209.165761    281.909    7.43925   69.23460 5.0256e+02     0.7976    81.9221     0.0770     0.0181  0.000e+00
      3.901    12.0902 209.226056    282.028    7.43011   69.14167 4.0035e+02     0.7958    81.9583     0.0791     0.0196  0.000e+00
      3.929    12.1169 209.346620    281.987    7.39781   68.88288 3.8816e+02     0.7978    81.9188     0.0795     0.0186  0.000e+00
      3.961    12.1446 209.195875    281.574    7.35935   68.56773 3.8599e+02     0.8023    81.8267     0.0775     0.0188  0.000e+00
      4.004    12.1373 208.864284    281.184    7.31641   68.15632 4.4409e+02     0.7978    81.9171     0.0785     0.0191  0.000e+00
      4.058    12.0492 208.231313    280.998    7.29098   67.78371 4.2747e+02     0.8014    81.8448     0.0795     0.0192  0.000e+00
      4.119    11.8966 207.507974    281.180    7.28683   67.51033 3.8707e+02     0.8077    81.7164     0.0806     0.0193  0.000e+00
      4.179    11.7614 207.086070    281.641    7.29756   67.40167 3.5903e+02     0.8032    81.8086     0.0785     0.0190  0.000e+00
      4.235    11.6513 207.056003    282.446    7.33295   67.55830 3.8857e+02     0.8092    81.6852     0.0777     0.0192  0.000e+00
      4.282    11.5784 207.719194    283.915    7.39817   68.04598 3.9152e+02     0.8053    81.7642     0.0776     0.0185  0.000e+00
      4.319    11.5727 208.201496    284.619    7.47925   68.78285 4.1679e+02     0.8044    81.7839     0.0784     0.0184  0.000e+00
      4.357    11.5892 208.442639    284.820    7.56158   69.56630 3.9069e+02     0.8102    81.6655     0.0799     0.0175  0.000e+00
      4.395    11.5779 208.261782    284.661    7.64382   70.30465 3.5708e+02     0.8023    81.8250     0.0822     0.0204  0.000e+00
      4.430    11.5566 208.291941    284.868    7.70946   70.87373 3.6093e+02     0.7946    81.9829     0.0847     0.0189  0.000e+00
      4.465    11.5419 208.382384    285.106    7.74219   71.15085 3.5489e+02     0.8050    81.7707     0.0849     0.0191  0.000e+00
      4.499    11.5369 208.502966    285.310    7.73643   71.08969 3.5827e+02     0.7969    81.9369     0.0858     0.0187  0.000e+00
      4.533    11.5369 208.563255    285.393    7.71271   70.87173 3.6418e+02     0.7934    82.0093     0.0882     0.0195  0.000e+00
      4.569    11.5386 208.382389    285.132    7.66520   70.43783 3.7057e+02     0.8075    81.7197     0.0873     0.0202  0.000e+00
      4.610    11.5395 208.020661    284.630    7.60818   69.91530 3.5129e+02     0.7983    81.9073     0.0871     0.0204  0.000e+00
      4.649    11.5359 207.869946    284.452    7.54599   69.33797 3.4209e+02     0.7982    81.9089     0.0880     0.0201  0.000e+00
      4.687    11.5284 207.719235    284.304    7.49436   68.85163 3.2157e+02     0.7931    82.0142     0.0905     0.0191  0.000e+00
      4.726    11.5190 207.568527    284.171    7.44846   68.41523 3.1085e+02     0.7841    82.1984     0.0924     0.0199  0.000e+00
      4.767    11.5035 207.417823    284.086    7.40884   68.02713 3.4810e+02     0.7838    82.2050     0.0917     0.0197  0.000e+00
      4.809    11.4783 207.056130    283.786    7.38546   67.77313 3.6017e+02     0.7925    82.0257     0.0925     0.0195  0.000e+00
      4.858    11.4363 206.513605    283.368    7.37127   67.57771 3.2607e+02     0.7872    82.1359     0.0918     0.0188  0.000e+00
      4.902    11.3856 206.453357    283.680    7.36924   67.48056 2.9980e+02     0.7897    82.0833     0.0936     0.0187  0.000e+00
      4.942    11.3462 206.784943    284.444    7.37788   67.49852 3.2739e+02     0.7877    82.1244     0.0949     0.0179  0.000e+00
      4.984    11.3326 206.995947    284.841    7.39742   67.65627 3.2796e+02     0.7843    82.1951     0.0975     0.0175  0.000e+00
      5.026    11.3262 206.634248    284.394    7.41917   67.84506 3.0415e+02     0.7801    82.2807     0.0972     0.0175  0.000e+00
      5.069    11.3071 206.393130    284.212    7.45104   68.10645 2.7492e+02     0.7889    82.1014     0.1017     0.0191  0.000e+00
      5.116    11.2826 205.850610    283.656    7.47865   68.32022 2.9057e+02     0.7666    82.5603     0.1099     0.0189  0.000e+00
      5.170    11.2440 204.856021    282.585    7.50728   68.52064 2.9712e+02     0.7833    82.2149     0.1092     0.0191  0.000e+00
      5.221    11.1958 204.645082    282.671    7.53848   68.72887 3.0447e+02     0.7874    82.1310     0.1086     0.0184  0.000e+00
      5.266    11.1753 204.705374    282.914    7.56129   68.90442 2.9210e+02     0.7995    81.8826     0.1099     0.0189  0.000e+00
      5.298    11.1720 206.091813    284.856    7.59662   69.22143 2.7574e+02     0.7888    82.1030     0.1061     0.0194  0.000e+00
      5.324    11.1694 206.634360    285.627    7.63630   69.57898 2.5419e+02     0.7890    82.0981     0.1032     0.0201  0.000e+00
      5.351    11.1480 206.935794    286.213    7.67894   69.93317 2.4318e+02     0.7777    82.3317     0.1027     0.0217  0.000e+00
      5.375    11.1287 206.996092    286.449    7.71291   70.21111 2.4741e+02     0.7758    82.3695     0.1114     0.0225  0.000e+00
      5.409    11.1447 206.332963    285.406    7.73129   70.40419 2.6678e+02     0.7813    82.2577     0.1154     0.0215  0.000e+00
      5.449    11.1706 205.519147    284.076    7.72402   70.37985 2.6890e+02     0.7735    82.4172     0.1144     0.0214  0.000e+00
      5.495    11.1790 204.705376    282.885    7.70295   70.20129 2.5820e+02     0.7739    82.4090     0.1131     0.0209  0.000e+00
      5.547    11.1718 203.861509    281.776    7.68003   69.98047 2.4632e+02     0.7708    82.4731     0.1188     0.0220  0.000e+00
      5.599    11.1336 203.168380    281.114    7.65989   69.73528 2.5131e+02     0.7651    82.5899     0.1211     0.0221  0.000e+00
      5.645    11.0858 203.228686    281.570    7.65248   69.59101 2.3392e+02     0.7699    82.4912     0.1238     0.0211  0.000e+00
      5.682    11.0616 204.042412    282.887    7.67357   69.74409 2.2783e+02     0.7742    82.4024     0.1204     0.0211  0.000e+00
      5.719    11.0693 204.162959    282.994    7.70981   70.08605 2.2751e+02     0.7688    82.5143     0.1185     0.0208  0.000e+00
      5.753    11.0762 205.097259    284.235    7.75606   70.51784 2.4520e+02     0.7718    82.4518     0.1168     0.0195  0.000e+00
      5.787    11.0776 205.368516    284.599    7.80140   70.93257 2.4732e+02     0.7736    82.4156     0.1163     0.0192  0.000e+00
      5.831    11.0632 204.584904    283.627    7.83412   71.20609 2.3244e+02     0.7674    82.5439     0.1148     0.0228  0.000e+00
      5.881    11.0462 203.741048    282.590    7.84111   71.24140 2.1792e+02     0.7688    82.5143     0.1145     0.0233  0.000e+00
      5.935    11.0289 202.957500    281.638    7.82728   71.08714 2.1210e+02     0.7735    82.4172     0.1166     0.0222  0.000e+00
      5.995    10.9958 201.691833    280.140    7.79532   70.74226 2.1099e+02     0.7679    82.5324     0.1241     0.0218  0.000e+00
      6.053    10.9504 201.209716    279.823    7.75236   70.27843 2.2580e+02     0.7739    82.4090     0.1240     0.0208  0.000e+00
      6.105    10.9121 201.179608    280.079    7.71527   69.88016 2.2528e+02     0.7723    82.4419     0.1238     0.0200  0.000e+00
      6.144    10.8855 202.505557    282.135    7.70515   69.74582 1.9906e+02     0.7735    82.4172     0.1299     0.0207  0.000e+00
      6.169    10.8867 204.223366    284.518    7.71518   69.83925 1.9344e+02     0.7684    82.5225     0.1279     0.0196  0.000e+00
      6.187    10.8847 204.886419    285.458    7.75705   70.21511 1.9691e+02     0.7693    82.5044     0.1241     0.0194  0.000e+00
      6.200    10.9313 205.639882    286.136    7.78621   70.55548 2.0054e+02     0.7637    82.6196     0.1236     0.0207  0.000e+00
      6.216    11.0514 205.639803    285.183    7.80002   70.87706 2.0445e+02     0.7647    82.5998     0.1231     0.0194  0.000e+00
      6.242    11.1355 204.343755    282.726    7.79552   70.97352 1.9788e+02     0.7654    82.5834     0.1231     0.0189  0.000e+00
      6.287    11.1739 202.384827    279.718    7.78553   70.94478 1.8974e+02     0.7769    82.3465     0.1227     0.0174  0.000e+00
      6.343    11.2012 201.058889    277.676    7.75668   70.72597 1.9091e+02     0.8060    81.7510     0.1246     0.0175  0.000e+00
      6.406    11.1568 200.004269    276.559    7.73169   70.42575 1.8934e+02     0.7898    82.0816     0.1472     0.0175  0.000e+00
      6.467    11.0593 199.763279    276.972    7.72495   70.20609 1.8483e+02     0.7775    82.3350     0.1687     0.0182  0.000e+00
      6.515    10.9864 200.727565    278.873    7.72355   70.07551 1.8251e+02     0.7757    82.3712     0.1654     0.0185  0.000e+00
      6.551    10.9598 202.174025    281.091    7.73773   70.16136 1.7798e+02     0.7720    82.4485     0.1562     0.0209  0.000e+00
      6.579    10.9282 203.530178    283.225    7.76020   70.31410 1.7571e+02     0.7705    82.4797     0.1487     0.0218  0.000e+00
      6.604    10.8867 204.012407    284.224    7.79340   70.54719 1.7491e+02     0.7792    82.3004     0.1454     0.0210  0.000e+00
      6.636    10.8474 203.289136    283.527    7.82325   70.75260 1.7552e+02     0.7882    82.1145     0.1385     0.0202  0.000e+00
      6.677    10.8313 202.083707    281.973    7.83764   70.85603 1.7204e+02     0.7686    82.5176     0.1328     0.0208  0.000e+00
      6.728    10.8219 200.818076    280.280    7.84805   70.93424 1.7256e+02     0.7631    82.6311     0.1360     0.0218  0.000e+00
      6.789    10.8138 199.883971    279.040    7.86472   71.07121 1.6976e+02     0.7871    82.1376     0.1369     0.0204  0.000e+00
      6.850    10.7994 199.522402    278.647    7.90182   71.38252 1.6491e+02     0.7724    82.4402     0.1363     0.0243  0.000e+00
      6.903    10.7776 199.371760    278.606    7.97138   71.97449 1.5969e+02     0.7688    82.5143     0.1340     0.0233  0.000e+00
      6.946    10.7587 200.516791    280.354    8.07767   72.90260 1.5941e+02     0.7698    82.4945     0.1347     0.0225  0.000e+00
      6.983    10.7582 201.149592    281.243    8.20499   74.05097 1.5890e+02     0.7655    82.5817     0.1407     0.0215  0.000e+00
      7.017    10.7620 201.993353    282.393    8.33598   75.24006 1.5960e+02     0.7745    82.3958     0.1456     0.0197  0.000e+00
      7.039    10.7593 203.017971    283.847    8.45009   76.26549 1.5887e+02     0.7880    82.1195     0.1491     0.0193  0.000e+00
      7.064    10.7518 203.289207    284.286    8.52651   76.94192 1.5146e+02     0.7745    82.3958     0.1551     0.0198  0.000e+00
      7.091    10.7658 203.289198    284.174    8.55684   77.24082 1.4801e+02     0.7797    82.2889     0.1571     0.0194  0.000e+00
      7.118    10.8259 203.289159    283.697    8.52615   77.07127 1.4897e+02     0.7853    82.1754     0.1577     0.0194  0.000e+00
      7.153    10.8987 202.174077    281.569    8.45926   76.59533 1.4905e+02     0.7874    82.1310     0.1550     0.0194  0.000e+00
      7.194    10.9200 200.998822    279.767    8.37275   75.84903 1.4856e+02     0.7741    82.4041     0.1493     0.0195  0.000e+00
      7.239    10.8978 200.456440    279.184    8.28304   74.99765 1.4617e+02     0.7891    82.0964     0.1493     0.0195  0.000e+00
      7.287    10.8733 199.944206    278.661    8.21393   74.32951 1.4060e+02     0.7781    82.3235     0.1476     0.0188  0.000e+00
      7.334    10.8474 199.823696    278.694    8.15748   73.77430 1.3560e+02     0.7841    82.1984     0.1520     0.0188  0.000e+00
      7.379    10.8228 199.642923    278.633    8.12645   73.45163 1.3401e+02     0.7809    82.2642     0.1531     0.0203  0.000e+00
      7.423    10.8010 199.883992    279.139    8.12583   73.40908 1.3570e+02     0.7888    82.1030     0.1569     0.0205  0.000e+00
      7.460    10.7867 200.094926    279.546    8.13761   73.49117 1.3694e+02     0.7802    82.2790     0.1535     0.0201  0.000e+00
      7.496    10.7838 200.637317    280.327    8.15910   73.68031 1.3444e+02     0.7771    82.3432     0.1509     0.0200  0.000e+00
      7.534    10.7915 200.938645    280.687    8.17185   73.80874 1.3092e+02     0.7861    82.1590     0.1978     0.0198  0.000e+00
      7.572    10.8006 201.059174    280.784    8.17162   73.82233 1.2966e+02     0.7982    81.9089     0.1899     0.0201  0.000e+00
      7.612    10.8034 200.938639    280.593    8.16385   73.75693 1.2771e+02     0.7880    82.1195     0.1784     0.0198  0.000e+00
      7.656    10.8020 200.185317    279.553    8.13489   73.49265 1.2653e+02     0.7858    82.1639     0.1684     0.0197  0.000e+00
      7.711    10.7898 199.371768    278.512    8.09424   73.10443 1.2472e+02     0.7824    82.2346     0.1605     0.0195  0.000e+00
      7.767    10.7627 198.889693    278.049    8.04871   72.64732 1.2107e+02     0.7960    81.9550     0.1579     0.0185  0.000e+00
      7.822    10.7368 198.528147    277.744    8.01083   72.26196 1.1887e+02     0.7896    82.0866     0.1730     0.0194  0.000e+00
      7.863    10.7168 199.462212    279.207    7.98579   72.00279 1.1971e+02     0.7896    82.0866     0.1852     0.0197  0.000e+00
      7.894    10.7089 200.757906    281.083    7.98753   72.00565 1.1986e+02     0.7909    82.0603     0.1845     0.0202  0.000e+00
      7.916    10.7052 201.450984    282.083    8.02126   72.30378 1.1771e+02     0.7954    81.9681     0.1768     0.0204  0.000e+00
      7.930    10.7004 202.174222    283.134    8.05884   72.63457 1.1450e+02     0.7939    81.9977     0.1779     0.0205  0.000e+00
      7.949    10.7413 202.083790    282.683    8.09283   73.01032 1.1360e+02     0.8057    81.7559     0.1826     0.0191  0.000e+00
      7.981    10.8201 200.938635    280.463    8.10182   73.22496 1.1374e+02     0.7903    82.0718     0.1828     0.0214  0.000e+00
      8.022    10.8755 200.094879    278.854    8.09823   73.28618 1.1468e+02     0.7819    82.2445     0.2844     0.0214  0.000e+00
      8.074    10.8929 199.070398    277.292    8.07801   73.13241 1.1392e+02     0.7905    82.0668     0.2691     0.0208  0.000e+00
      8.129    10.8685 198.377419    276.514    8.04781   72.81763 1.1020e+02     0.8274    81.3151     0.2406     0.0205  0.000e+00
      8.177    10.8273 198.166539    276.538    8.01975   72.49436 1.0722e+02     0.8017    81.8382     0.2137     0.0200  0.000e+00
      8.223    10.7920 197.955658    276.516    8.00479   72.29988 1.0611e+02     0.7966    81.9418     0.1987     0.0204  0.000e+00
      8.271    10.7565 197.895423    276.706    8.00721   72.26215 1.0603e+02     0.7990    81.8941     0.2113     0.0192  0.000e+00
      8.319    10.7262 197.714670    276.688    8.02105   72.33597 1.0448e+02     0.7931    82.0142     0.2087     0.0194  0.000e+00
      8.368    10.7026 197.654428    276.787    8.03903   72.45836 1.0306e+02     0.7865    82.1507     0.1922     0.0188  0.000e+00
      8.415    10.6821 197.774958    277.115    8.06018   72.61447 1.0142e+02     0.7846    82.1886     0.1856     0.0200  0.000e+00
      8.457    10.6708 198.226904    277.836    8.09236   72.88535 1.0069e+02     0.7988    81.8974     0.1837     0.0187  0.000e+00
      8.502    10.6715 197.835224    277.282    8.12947   73.22057 9.9321e+01     0.7893    82.0915     0.1821     0.0195  0.000e+00
      8.545    10.6694 197.805097    277.255    8.18316   73.70063 9.8850e+01     0.8033    81.8053     0.1812     0.0200  0.000e+00
      8.584    10.6633 198.046135    277.641    8.24591   74.25524 9.7452e+01     0.7907    82.0635     0.1778     0.0185  0.000e+00
      8.618    10.6598 198.678862    278.555    8.31679   74.88763 9.6226e+01     0.7877    82.1261     0.1711     0.0199  0.000e+00
      8.647    10.6633 199.070557    279.077    8.40099   75.65209 9.5250e+01     0.7942    81.9928     0.1681     0.0194  0.000e+00
      8.674    10.6691 199.522520    279.665    8.48806   76.44670 9.5283e+01     0.7987    81.8990     0.1662     0.0204  0.000e+00
      8.698    10.6734 199.944362    280.223    8.55216   77.03184 9.4449e+01     0.7928    82.0208     0.1692     0.0198  0.000e+00
      8.725    10.6728 199.823836    280.059    8.59603   77.42579 9.3376e+01     0.7865    82.1491     0.1746     0.0195  0.000e+00
      8.760    10.6704 199.341733    279.402    8.61894   77.62771 9.2152e+01     0.8092    81.6852     0.1868     0.0198  0.000e+00
      8.806    10.6695 198.437819    278.142    8.60193   77.47260 9.0435e+01     0.8073    81.7247     0.1862     0.0191  0.000e+00
      8.859    10.6645 197.714720    277.167    8.57405   77.21221 8.8718e+01     0.7981    81.9122     0.1828     0.0195  0.000e+00
      8.912    10.6487 197.292932    276.699    8.54014   76.87842 8.7601e+01     0.8011    81.8497     0.1881     0.0204  0.000e+00
      8.965    10.6314 197.232687    276.748    8.51395   76.61194 8.6530e+01     0.7915    82.0471     0.1842     0.0203  0.000e+00
      9.009    10.6197 197.533979    277.262    8.51017   76.55705 8.5938e+01     0.7991    81.8908     0.1801     0.0200  0.000e+00
      9.052    10.6180 198.076302    278.036    8.53182   76.74905 8.4603e+01     0.7962    81.9517     0.1803     0.0202  0.000e+00
      9.089    10.6297 198.528240    278.580    8.55660   76.99291 8.4232e+01     0.8111    81.6457     0.1752     0.0201  0.000e+00
      9.124    10.6400 198.889797    279.006    8.57616   77.18762 8.4084e+01     0.7907    82.0635     0.1687     0.0204  0.000e+00
      9.160    10.6415 198.829536    278.910    8.58374   77.25855 8.3231e+01     0.7838    82.2050     0.1690     0.0205  0.000e+00
      9.202    10.6394 198.377587    278.293    8.56872   77.11936 8.1852e+01     0.7893    82.0932     0.1687     0.0201  0.000e+00
      9.247    10.6370 197.775002    277.466    8.52740   76.74301 8.0439e+01     0.7861    82.1590     0.1743     0.0199  0.000e+00
      9.300    10.6315 197.323078    276.874    8.46223   76.14667 7.9427e+01     0.8065    81.7411     0.1782     0.0208  0.000e+00
      9.354    10.6215 196.991678    276.487    8.39114   75.48927 7.8427e+01     0.7976    81.9221     0.1814     0.0200  0.000e+00
      9.412    10.6090 196.810921    276.330    8.31584   74.79002 7.7495e+01     0.8011    81.8497     0.1827     0.0195  0.000e+00
      9.465    10.5989 196.841056    276.451    8.25651   74.23890 7.6399e+01     0.8013    81.8464     0.1897     0.0182  0.000e+00
      9.503    10.5927 198.016068    278.150    8.23258   74.01353 7.5384e+01     0.8044    81.7839     0.1931     0.0192  0.000e+00
      9.532    10.5957 198.950095    279.438    8.23428   74.03419 7.5119e+01     0.8039    81.7938     0.2352     0.0185  0.000e+00
      9.548    10.5980 199.462320    280.140    8.25663   74.23928 7.4869e+01     0.8085    81.6984     0.2226     0.0195  0.000e+00
      9.557    10.6058 200.215613    281.135    8.28078   74.47032 7.4961e+01     0.7954    81.9681     0.2071     0.0200  0.000e+00
      9.574    10.6507 199.944394    280.401    8.28653   74.59979 7.4790e+01     0.8003    81.8661     0.2068     0.0210  0.000e+00
      9.603    10.7119 198.859629    278.402    8.27448   74.59697 7.3927e+01     0.7982    81.9089     0.2331     0.0200  0.000e+00
      9.647    10.7610 197.955704    276.756    8.24656   74.42996 7.2817e+01     0.7995    81.8842     0.2264     0.0204  0.000e+00
      9.703    10.7854 197.112090    275.389    8.20284   74.07707 7.1033e+01     0.7997    81.8793     0.2210     0.0219  0.000e+00
      9.765    10.7662 196.660190    274.905    8.16724   73.72249 6.9525e+01     0.8094    81.6803     0.2114     0.0225  0.000e+00
      9.826    10.7215 196.389076    274.869    8.15086   73.49822 6.8553e+01     0.8022    81.8283     0.2014     0.0214  0.000e+00
      9.882    10.6820 196.358975    275.131    8.15705   73.48660 6.7857e+01     0.8104    81.6605     0.2020     0.0225  0.000e+00
      9.933    10.6538 196.449375    275.476    8.18328   73.67444 6.7476e+01     0.8036    81.7987     0.1942     0.0204  0.000e+00
      9.977    10.6429 196.841037    276.109    8.22044   73.99049 6.7417e+01     0.8147    81.5733     0.1909     0.0211  0.000e+00
     10.015    10.6416 197.714756    277.345    8.26006   74.34511 6.6615e+01     0.8083    81.7033     0.1856     0.0202  0.000e+00
     10.046    10.6429 198.648770    278.645    8.29947   74.70240 6.5742e+01     0.7991    81.8925     0.1830     0.0215  0.000e+00
     10.076    10.6339 198.950080    279.139    8.33009   74.96231 6.4869e+01     0.8009    81.8546     0.1804     0.0210  0.000e+00
     10.105    10.6203 199.100743    279.456    8.34796   75.09936 6.4437e+01     0.8031    81.8102     0.1827     0.0203  0.000e+00
     10.137    10.6094 198.950097    279.330    8.36062   75.19419 6.4019e+01     0.8132    81.6029     0.1849     0.0192  0.000e+00
     10.175    10.6046 198.468017    278.691    8.36441   75.21964 6.3827e+01     0.8041    81.7888     0.1872     0.0191  0.000e+00
     10.219    10.6053 197.835298    277.798    8.36211   75.19998 6.3268e+01     0.8016    81.8398     0.1913     0.0190  0.000e+00
     10.268    10.6070 197.172471    276.853    8.35567   75.14494 6.2373e+01     0.7962    81.9517     0.1916     0.0194  0.000e+00
     10.317    10.6052 196.871195    276.445    8.37671   75.33070 6.0995e+01     0.7978    81.9171     0.1888     0.0197  0.000e+00
     10.365    10.5972 196.931456    276.591    8.41074   75.62270 6.0058e+01     0.8036    81.7987     0.1910     0.0202  0.000e+00
     10.414    10.5886 196.841080    276.531    8.46026   76.05280 5.9448e+01     0.8036    81.7987     0.1930     0.0195  0.000e+00
     10.457    10.5827 196.961595    276.747    8.52434   76.61824 5.9229e+01     0.7969    81.9369     0.1937     0.0200  0.000e+00
     10.494    10.5790 197.594290    277.664    8.58535   77.16028 5.9052e+01     0.8062    81.7461     0.1996     0.0200  0.000e+00
     10.523    10.5836 197.865447    278.009    8.64509   77.70555 5.8762e+01     0.7988    81.8974     0.2008     0.0191  0.000e+00
     10.552    10.5905 198.226995    278.463    8.68293   78.05833 5.8124e+01     0.8076    81.7181     0.1946     0.0195  0.000e+00
     10.580    10.5950 198.437900    278.724    8.69859   78.20742 5.7463e+01     0.7997    81.8793     0.1892     0.0188  0.000e+00
     10.613    10.5968 198.166733    278.329    8.68620   78.09918 5.6880e+01     0.8158    81.5503     0.1891     0.0193  0.000e+00
     10.655    10.5970 197.443639    277.312    8.64282   77.70925 5.6173e+01     0.8091    81.6868     0.1872     0.0186  0.000e+00
     10.706    10.5939 196.780827    276.405    8.57550   77.09821 5.5486e+01     0.7984    81.9056     0.1828     0.0200  0.000e+00
     10.763    10.5848 196.298800    275.799    8.50679   76.46404 5.4777e+01     0.8164    81.5388     0.1946     0.0197  0.000e+00
     10.827    10.5715 195.816787    275.224    8.43928   75.83357 5.3860e+01     0.8185    81.4944     0.2313     0.0206  0.000e+00
     10.888    10.5578 195.666167    275.119    8.38275   75.30152 5.3163e+01     0.8019    81.8349     0.2273     0.0208  0.000e+00
     10.939    10.5486 195.967435    275.613    8.35779   75.06137 5.2494e+01     0.8018    81.8365     0.2199     0.0203  0.000e+00
     10.979    10.5501 196.991753    277.043    8.35970   75.08136 5.2254e+01     0.8102    81.6655     0.2133     0.0212  0.000e+00
     11.008    10.5612 197.865471    278.184    8.38057   75.28863 5.1860e+01     0.8036    81.7987     0.2107     0.0211  0.000e+00
     11.033    10.5606 198.347542    278.867    8.40515   75.50856 5.1632e+01     0.8157    81.5519     0.2060     0.0211  0.000e+00
     11.053    10.5542 198.678976    279.383    8.42173   75.64626 5.1487e+01     0.8135    81.5964     0.2280     0.0210  0.000e+00
     11.078    10.5627 198.588580    279.189    8.41915   75.63811 5.1216e+01     0.8114    81.6391     0.2319     0.0208  0.000e+00
     11.110    10.5915 197.865453    277.947    8.39738   75.49295 5.0607e+01     0.8047    81.7773     0.2278     0.0212  0.000e+00
     11.150    10.6047 197.112233    276.787    8.34501   75.04492 4.9943e+01     0.8040    81.7921     0.2242     0.0211  0.000e+00
     11.198    10.5996 196.359052    275.769    8.28349   74.48256 4.9020e+01     0.7990    81.8941     0.2241     0.0204  0.000e+00
     11.253    10.5891 196.057794    275.427    8.21878   73.88255 4.8403e+01     0.8089    81.6918     0.2206     0.0203  0.000e+00
     11.304    10.5782 195.937296    275.342    8.16613   73.39061 4.7743e+01     0.8179    81.5075     0.2162     0.0197  0.000e+00
     11.343    10.5690 196.720600    276.514    8.14105   73.14969 4.7316e+01     0.8065    81.7411     0.2200     0.0204  0.000e+00
     11.378    10.5687 197.293029    277.321    8.14429   73.17860 4.6860e+01     0.8023    81.8250     0.2824     0.0214  0.000e+00
     11.411    10.5690 197.835344    278.081    8.16005   73.32079 4.6728e+01     0.8023    81.8267     0.2751     0.0221  0.000e+00
     11.444    10.5655 197.895605    278.193    8.18774   73.56361 4.6327e+01     0.8088    81.6934     0.2768     0.0225  0.000e+00
     11.485    10.5602 197.323164    277.430    8.20444   73.70440 4.5703e+01     0.8103    81.6622     0.2576     0.0217  0.000e+00
     11.534    10.5557 196.600103    276.448    8.21109   73.75621 4.5080e+01     0.8193    81.4796     0.2366     0.0209  0.000e+00
     11.586    10.5546 196.298835    276.033    8.20273   73.67915 4.4575e+01     0.8060    81.7493     0.2320     0.0204  0.000e+00
     11.636    10.5510 196.118078    275.807    8.17806   73.45129 4.3967e+01     0.8120    81.6276     0.2327     0.0204  0.000e+00
     11.685    10.5440 196.148210    275.904    8.14498   73.14222 4.3490e+01     0.8178    81.5092     0.2303     0.0202  0.000e+00
     11.729    10.5382 196.118088    275.906    8.12625   72.96414 4.3109e+01     0.8168    81.5306     0.2245     0.0199  0.000e+00
     11.771    10.5358 196.178343    276.009    8.12725   72.96921 4.2536e+01     0.8175    81.5158     0.2229     0.0202  0.000e+00
     11.811    10.5363 196.298850    276.175    8.15398   73.20998 4.1985e+01     0.8190    81.4845     0.2216     0.0195  0.000e+00
     11.851    10.5382 196.178343    275.991    8.19798   73.60835 4.1698e+01     0.8189    81.4878     0.2208     0.0188  0.000e+00
     11.892    10.5387 196.118090    275.903    8.24208   74.00500 4.1478e+01     0.8240    81.3825     0.2157     0.0200  0.000e+00
     11.934    10.5370 196.087966    275.873    8.28571   74.39377 4.1114e+01     0.8153    81.5602     0.2171     0.0198  0.000e+00
     11.978    10.5339 195.997589    275.770    8.32793   74.76750 4.0768e+01     0.8210    81.4434     0.2184     0.0200  0.000e+00
     12.016    10.5299 196.087972    275.928    8.35181   74.97503 4.0227e+01     0.8160    81.5470     0.2329     0.0209  0.000e+00
     12.050    10.5278 196.479622    276.496    8.35881   75.03422 3.9853e+01     0.8107    81.6539     0.2295     0.0214  0.000e+00
     12.073    10.5288 196.871276    277.039    8.35399   74.99290 3.9608e+01     0.8094    81.6819     0.2621     0.0208  0.000e+00
     12.092    10.5324 197.232809    277.520    8.34262   74.89711 3.9427e+01     0.8131    81.6062     0.2667     0.0214  0.000e+00
     12.113    10.5339 197.293065    277.593    8.31840   74.68237 3.8965e+01     0.8184    81.4977     0.2509     0.0200  0.000e+00
     12.140    10.5350 197.232808    277.499    8.28726   74.40469 3.8630e+01     0.8157    81.5519     0.2519     0.0194  0.000e+00
     12.177    10.5390 196.660380    276.663    8.24130   73.99871 3.8210e+01     0.8205    81.4549     0.2541     0.0192  0.000e+00
     12.228    10.5412 195.816832    275.459    8.19289   73.56756 3.7583e+01     0.8128    81.6112     0.2616     0.0189  0.000e+00
     12.294    10.5358 195.304700    274.780    8.13162   73.00811 3.7057e+01     0.8156    81.5552     0.3255     0.0197  0.000e+00
     12.367    10.5267 195.033581    274.469    8.09311   72.64693 3.6694e+01     0.8272    81.3184     0.3079     0.0210  0.000e+00
     12.437    10.5177 194.882964    274.327    8.08055   72.51873 3.5901e+01     0.8292    81.2772     0.2827     0.0208  0.000e+00
     12.492    10.5136 195.515596    275.249    8.10284   72.71206 3.5492e+01     0.8199    81.4664     0.2596     0.0208  0.000e+00
     12.533    10.5188 196.238621    276.227    8.16022   73.23608 3.5119e+01     0.8179    81.5075     0.2506     0.0220  0.000e+00
     12.562    10.5188 197.112314    277.456    8.22706   73.83629 3.4848e+01     0.8220    81.4236     0.2455     0.0215  0.000e+00
     12.584    10.5126 197.714886    278.353    8.30355   74.51221 3.4695e+01     0.8114    81.6391     0.2416     0.0214  0.000e+00
     12.608    10.5116 197.714887    278.361    8.37610   75.16134 3.4439e+01     0.8270    81.3233     0.2380     0.0213  0.000e+00
     12.638    10.5362 197.172560    277.405    8.42689   75.66043 3.4239e+01     0.8226    81.4121     0.2325     0.0212  0.000e+00
     12.675    10.5493 196.720637    276.667    8.45867   75.96887 3.3802e+01     0.8260    81.3430     0.2370     0.0212  0.000e+00
     12.721    10.5500 196.148225    275.857    8.47370   76.10476 3.3288e+01     0.8270    81.3216     0.2341     0.0204  0.000e+00
     12.775    10.5501 195.545704    275.009    8.49616   76.30648 3.2695e+01     0.8236    81.3907     0.2351     0.0204  0.000e+00
     12.827    10.5396 195.455335    274.963    8.53018   76.59328 3.2323e+01     0.8171    81.5240     0.2385     0.0211  0.000e+00
     12.871    10.5309 195.605969    275.242    8.59547   77.16391 3.2067e+01     0.8231    81.4006     0.2428     0.0203  0.000e+00
     12.911    10.5262 195.756602    275.490    8.67361   77.85699 3.1674e+01     0.8230    81.4039     0.2364     0.0201  0.000e+00
     12.940    10.5238 196.991806    277.248    8.76224   78.64854 3.1435e+01     0.8267    81.3282     0.2329     0.0211  0.000e+00
     12.952    10.5190 197.534117    278.049    8.83996   79.33740 3.1303e+01     0.8243    81.3776     0.2321     0.0200  0.000e+00
     12.973    10.5205 197.172577    277.528    8.89033   79.79222 3.1072e+01     0.8312    81.2378     0.2353     0.0215  0.000e+00
     13.006    10.5404 196.961669    277.076    8.90256   79.93885 3.0605e+01     0.8255    81.3529     0.2437     0.0213  0.000e+00
     13.046    10.5510 196.419371    276.230    8.87487   79.70981 3.0261e+01     0.8340    81.1802     0.2466     0.0211  0.000e+00
     13.102    10.5478 195.666214    275.196    8.82205   79.22913 2.9680e+01     0.8295    81.2707     0.2458     0.0198  0.000e+00
     13.165    10.5404 195.304713    274.745    8.74059   78.48392 2.9203e+01     0.8363    81.1341     0.2460     0.0205  0.000e+00
     13.231    10.5264 195.123972    274.599    8.66062   77.74057 2.8693e+01     0.8363    81.1341     0.2570     0.0205  0.000e+00
     13.290    10.5109 195.003483    274.549    8.59473   77.12111 2.8276e+01     0.8384    81.0913     0.2751     0.0200  0.000e+00
     13.342    10.5006 195.184241    274.883    8.54367   76.64462 2.8043e+01     0.8347    81.1654     0.2749     0.0201  0.000e+00
     13.383    10.4989 195.726502    275.660    8.51024   76.34189 2.7772e+01     0.8399    81.0601     0.2825     0.0189  0.000e+00
     13.416    10.5003 196.479664    276.710    8.47922   76.06632 2.7475e+01     0.8393    81.0716     0.2746     0.0182  0.000e+00
     13.449    10.4980 196.600175    276.898    8.45681   75.86117 2.7316e+01     0.8338    81.1851     0.2701     0.0188  0.000e+00
     13.481    10.4915 196.720689    277.118    8.42666   75.57940 2.7038e+01     0.8284    81.2937     0.2667     0.0201  0.000e+00
     13.517    10.4865 196.539929    276.903    8.39302   75.26873 2.6706e+01     0.8343    81.1736     0.2610     0.0204  0.000e+00
     13.551    10.4836 196.359170    276.670    8.35409   74.91455 2.6337e+01     0.8307    81.2476     0.2571     0.0209  0.000e+00
     13.588    10.4826 196.148284    276.381    8.30983   74.51576 2.6028e+01     0.8342    81.1752     0.2712     0.0204  0.000e+00
     13.624    10.4818 195.997653    276.175    8.27447   74.19735 2.5727e+01     0.8357    81.1456     0.2855     0.0211  0.000e+00
     13.658    10.4816 195.877149    276.007    8.25899   74.05818 2.5492e+01     0.8219    81.4253     0.2778     0.0207  0.000e+00
     13.691    10.4817 196.118160    276.346    8.26267   74.09137 2.5317e+01     0.8272    81.3184     0.2741     0.0204  0.000e+00
     13.723    10.4826 196.178413    276.424    8.27586   74.21113 2.5068e+01     0.8296    81.2690     0.2940     0.0217  0.000e+00
     13.760    10.4840 195.816897    275.903    8.30803   74.50204 2.4914e+01     0.8231    81.4023     0.2924     0.0214  0.000e+00
     13.801    10.4845 195.606016    275.602    8.33304   74.72715 2.4626e+01     0.8325    81.2098     0.2791     0.0211  0.000e+00
     13.850    10.4841 195.395138    275.308    8.36448   75.00820 2.4264e+01     0.8237    81.3891     0.2658     0.0208  0.000e+00
     13.904    10.4806 195.063763    274.869    8.38676   75.20176 2.3924e+01     0.8265    81.3315     0.2694     0.0194  0.000e+00
     13.958    10.4734 194.943269    274.755    8.40071   75.31411 2.3547e+01     0.8301    81.2591     0.2570     0.0204  0.000e+00
     14.011    10.4609 194.943278    274.851    8.42656   75.52388 2.3238e+01     0.8335    81.1900     0.2502     0.0194  0.000e+00
     14.064    10.4469 194.943288    274.960    8.45307   75.73675 2.2932e+01     0.8258    81.3463     0.2430     0.0201  0.000e+00
     14.114    10.4363 194.883046    274.957    8.48699   76.02186 2.2647e+01     0.8267    81.3282     0.2463     0.0206  0.000e+00
     14.164    10.4295 194.883051    275.010    8.52717   76.36959 2.2365e+01     0.8219    81.4253     0.2817     0.0204  0.000e+00
     14.210    10.4250 194.943305    275.130    8.55830   76.64034 2.2118e+01     0.8152    81.5635     0.2974     0.0221  0.000e+00
     14.250    10.4218 195.184307    275.495    8.57804   76.81133 2.1908e+01     0.8134    81.5997     0.2904     0.0229  0.000e+00
     14.282    10.4210 195.606065    276.096    8.58404   76.86389 2.1831e+01     0.8112    81.6441     0.2766     0.0220  0.000e+00
     14.309    10.4256 195.756692    276.273    8.56767   76.72569 2.1727e+01     0.8099    81.6704     0.2879     0.0217  0.000e+00
     14.338    10.4294 195.816942    276.329    8.52508   76.35097 2.1593e+01     0.8052    81.7658     0.3006     0.0229  0.000e+00
     14.368    10.4298 195.756690    276.241    8.46649   75.82688 2.1423e+01     0.8017    81.8382     0.2878     0.0211  0.000e+00
     14.407    10.4295 195.485559    275.861    8.40666   75.29038 2.1178e+01     0.7988    81.8974     0.3072     0.0220  0.000e+00
     14.448    10.4280 195.244557    275.532    8.32852   74.58787 2.0918e+01     0.8094    81.6819     0.2923     0.0221  0.000e+00
     14.488    10.4245 195.184310    275.474    8.25563   73.92900 2.0673e+01     0.8004    81.8645     0.2824     0.0233  0.000e+00
     14.528    10.4200 195.184314    275.509    8.18572   73.29529 2.0350e+01     0.7988    81.8974     0.2721     0.0218  0.000e+00
     14.565    10.4152 195.304818    275.716    8.13367   72.82115 2.0143e+01     0.7877    82.1261     0.2606     0.0223  0.000e+00
     14.601    10.4128 195.425322    275.906    8.09115   72.43643 1.9896e+01     0.7910    82.0570     0.2532     0.0223  0.000e+00
     14.641    10.4131 195.244570    275.647    8.04823   72.05272 1.9690e+01     0.7886    82.1063     0.2430     0.0221  0.000e+00
     14.686    10.4134 195.124070    275.475    8.02237   71.82158 1.9417e+01     0.7812    82.2593     0.2441     0.0221  0.000e+00
     14.734    10.4099 195.033698    275.375    8.00209   71.63412 1.9243e+01     0.7730    82.4271     0.2428     0.0218  0.000e+00
     14.785    10.3987 194.762584    275.079    7.98663   71.47694 1.9067e+01     0.7777    82.3300     0.2425     0.0223  0.000e+00
     14.836    10.3780 194.611976    275.027    7.96997   71.29338 1.8846e+01     0.7810    82.2626     0.2432     0.0208  0.000e+00
     14.881    10.3485 194.642119    275.299    7.97066   71.25040 1.8579e+01     0.7825    82.2313     0.2730     0.0219  0.000e+00
     14.925    10.3214 194.612013    275.468    7.97984   71.28710 1.8399e+01     0.7809    82.2642     0.2824     0.0211  0.000e+00
     14.968    10.3004 194.551778    275.547    8.00088   71.43990 1.8147e+01     0.7861    82.1590     0.2732     0.0208  0.000e+00
     15.015    10.2849 194.521665    275.625    8.03413   71.71081 1.7953e+01     0.7833    82.2149     0.2599     0.0204  0.000e+00
     15.064    10.2716 194.431302    275.601    8.06161   71.93360 1.7732e+01     0.7916    82.0454     0.2499     0.0194  0.000e+00
     15.113    10.2531 194.371066    275.660    8.09231   72.17626 1.7555e+01     0.7874    82.1310     0.2411     0.0197  0.000e+00
     15.154    10.2413 194.581943    276.051    8.12387   72.43776 1.7437e+01     0.7822    82.2379     0.2527     0.0203  0.000e+00
     15.188    10.2391 194.822941    276.410    8.14189   72.59483 1.7333e+01     0.7883    82.1129     0.2519     0.0198  0.000e+00
     15.221    10.2416 195.094064    276.776    8.14721   72.64651 1.7226e+01     0.7917    82.0438     0.2454     0.0203  0.000e+00
     15.250    10.2421 195.304941    277.071    8.14589   72.63561 1.7156e+01     0.7870    82.1392     0.2683     0.0207  0.000e+00
     15.284    10.2384 195.304944    277.100    8.13868   72.56512 1.7033e+01     0.7965    81.9451     0.3639     0.0201  0.000e+00
     15.322    10.2357 195.304946    277.121    8.11652   72.36300 1.6826e+01     0.7934    82.0093     0.3481     0.0202  0.000e+00
     15.350    10.2360 195.395323    277.247    8.08459   72.07888 1.6690e+01     0.7938    81.9994     0.3213     0.0198  0.000e+00
     15.382    10.2373 195.485699    277.365    8.04692   71.74525 1.6581e+01     0.7966    81.9418     0.2930     0.0197  0.000e+00
     15.417    10.2380 195.455574    277.317    7.99692   71.30044 1.6383e+01     0.7948    81.9796     0.2673     0.0199  0.000e+00
     15.455    10.2394 195.365197    277.178    7.95005   70.88492 1.6202e+01     0.7895    82.0882     0.2499     0.0197  0.000e+00
     15.502    10.2419 195.003694    276.645    7.90008   70.44336 1.6025e+01     0.7916    82.0454     0.2485     0.0208  0.000e+00
     15.552    10.2426 194.612074    276.084    7.84946   69.99303 1.5837e+01     0.7886    82.1063     0.2420     0.0210  0.000e+00
     15.599    10.2340 194.431335    275.895    7.80662   69.59693 1.5637e+01     0.7961    81.9533     0.2778     0.0200  0.000e+00
     15.643    10.2152 194.310852    275.871    7.77773   69.30889 1.5480e+01     0.7859    82.1622     0.2869     0.0201  0.000e+00
     15.683    10.1949 194.371113    276.116    7.76823   69.19112 1.5355e+01     0.7949    81.9780     0.2804     0.0205  0.000e+00
     15.720    10.1803 194.310875    276.145    7.76954   69.17921 1.5271e+01     0.7922    82.0323     0.2687     0.0198  0.000e+00
     15.763    10.1710 194.190387    276.047    7.79744   69.41238 1.5136e+01     0.7967    81.9402     0.2506     0.0202  0.000e+00
     15.812    10.1547 193.949409    275.832    7.82884   69.66524 1.4950e+01     0.7909    82.0586     0.2511     0.0201  0.000e+00
     15.865    10.1309 193.587948    275.504    7.87312   70.02005 1.4735e+01     0.7882    82.1145     0.2429     0.0194  0.000e+00
     15.924    10.1080 193.316859    275.299    7.91410   70.34641 1.4518e+01     0.7899    82.0800     0.2339     0.0198  0.000e+00
     15.977    10.0860 193.256629    275.385    7.95894   70.70857 1.4304e+01     0.7934    82.0093     0.2334     0.0196  0.000e+00
     16.027    10.0705 193.316884    275.593    8.01043   71.14001 1.4120e+01     0.7958    81.9583     0.2371     0.0207  0.000e+00
     16.066    10.0653 193.828977    276.364    8.07048   71.66459 1.3991e+01     0.7861    82.1590     0.2335     0.0200  0.000e+00
     16.097    10.0690 194.371200    277.108    8.12627   72.16650 1.3880e+01     0.7883    82.1129     0.2361     0.0197  0.000e+00
     16.120    10.0701 194.823065    277.743    8.17853   72.63263 1.3819e+01     0.7880    82.1195     0.2365     0.0191  0.000e+00
     16.137    10.0650 195.184568    278.299    8.21804   72.97481 1.3726e+01     0.7840    82.2017     0.2317     0.0192  0.000e+00
     16.154    10.0784 195.425563    278.536    8.22387   73.04988 1.3666e+01     0.7881    82.1162     0.2295     0.0199  0.000e+00
     16.175    10.1143 195.244788    277.994    8.20694   72.96090 1.3620e+01     0.7874    82.1310     0.2243     0.0211  0.000e+00
     16.207    10.1422 194.612150    276.873    8.16529   72.63803 1.3517e+01     0.7927    82.0224     0.2337     0.0208  0.000e+00
     16.254    10.1514 194.009666    275.943    8.10873   72.15026 1.3343e+01     0.7888    82.1030     0.2565     0.0205  0.000e+00
     16.313    10.1555 193.377081    275.012    8.03975   71.54309 1.3102e+01     0.8056    81.7576     0.2510     0.0210  0.000e+00
     16.384    10.1323 192.895142    274.508    7.97627   70.93948 1.2879e+01     0.8012    81.8480     0.2573     0.0210  0.000e+00
     16.447    10.0933 192.593951    274.384    7.93352   70.49450 1.2638e+01     0.8056    81.7592     0.2554     0.0208  0.000e+00
     16.504    10.0621 192.654214    274.714    7.93246   70.43349 1.2458e+01     0.8029    81.8135     0.2503     0.0203  0.000e+00
     16.548    10.0444 193.106054    275.497    7.95168   70.57486 1.2348e+01     0.7977    81.9204     0.2381     0.0215  0.000e+00
     16.585    10.0384 193.829003    276.576    7.99818   70.97776 1.2209e+01     0.8011    81.8513     0.2327     0.0217  0.000e+00
     16.620    10.0295 194.371235    277.420    8.04710   71.39706 1.2106e+01     0.7952    81.9714     0.2604     0.0217  0.000e+00
     16.653    10.0164 194.612237    277.868    8.10071   71.85068 1.2037e+01     0.7994    81.8859     0.2619     0.0218  0.000e+00
     16.693    10.0056 194.160384    277.309    8.14112   72.19056 1.1984e+01     0.8030    81.8119     0.2661     0.0207  0.000e+00
     16.739     9.9988 193.527801    276.459    8.16712   72.40934 1.1822e+01     0.8071    81.7280     0.2506     0.0205  0.000e+00
     16.786     9.9956 193.256700    276.097    8.18192   72.53502 1.1705e+01     0.7970    81.9336     0.2927     0.0211  0.000e+00
     16.837     9.9941 193.015725    275.765    8.19718   72.66756 1.1528e+01     0.7883    82.1129     0.3511     0.0211  0.000e+00
     16.883     9.9899 193.015728    275.798    8.25643   73.18561 1.1396e+01     0.7958    81.9599     0.3303     0.0206  0.000e+00
     16.923     9.9838 193.377200    276.362    8.31055   73.65481 1.1268e+01     0.8011    81.8513     0.2903     0.0217  0.000e+00
     16.957     9.9825 193.708553    276.846    8.40877   74.52320 1.1176e+01     0.7956    81.9632     0.2674     0.0204  0.000e+00
     16.983     9.9845 194.100156    277.390    8.52190   75.52958 1.1101e+01     0.7936    82.0043     0.2860     0.0211  0.000e+00
     17.008     9.9858 194.371270    277.767    8.64042   76.58240 1.1000e+01     0.7930    82.0158     0.3053     0.0219  0.000e+00
     17.033     9.9851 194.401395    277.816    8.73806   77.44653 1.0893e+01     0.7905    82.0668     0.2737     0.0212  0.000e+00
     17.065     9.9849 194.250775    277.602    8.80154   78.00886 1.0839e+01     0.7890    82.0981     0.2527     0.0213  0.000e+00
     17.110     9.9862 193.527816    276.559    8.83119   78.27368 1.0690e+01     0.7975    81.9237     0.2667     0.0213  0.000e+00
     17.170     9.9846 192.774761    275.495    8.81987   78.17024 1.0604e+01     0.7951    81.9731     0.2878     0.0204  0.000e+00
     17.236     9.9756 192.322948    274.920    8.78444   77.83943 1.0415e+01     0.7942    81.9928     0.3550     0.0200  0.000e+00
     17.295     9.9590 192.262717    274.964    8.74476   77.45767 1.0263e+01     0.8003    81.8661     0.3333     0.0208  0.000e+00
     17.349     9.9475 192.292846    275.098    8.71614   77.18314 1.0122e+01     0.7915    82.0471     0.3186     0.0217  0.000e+00
     17.393     9.9440 192.594061    275.556    8.70966   77.11952 1.0022e+01     0.7930    82.0158     0.2956     0.0228  0.000e+00
     17.428     9.9483 193.256742    276.471    8.71117   77.14083 9.9797e+00     0.7934    82.0093     0.2692     0.0227  0.000e+00
     17.467     9.9493 192.955520    276.032    8.71691   77.19348 9.8304e+00     0.7914    82.0487     0.3364     0.0216  0.000e+00
     17.514     9.9431 192.533821    275.477    8.72178   77.22524 9.7040e+00     0.8032    81.8069     0.3494     0.0203  0.000e+00
     17.560     9.9395 192.473582    275.420    8.71904   77.19441 9.5825e+00     0.7963    81.9484     0.3337     0.0192  0.000e+00
     17.607     9.9356 192.443464    275.407    8.70537   77.06634 9.4492e+00     0.7991    81.8908     0.3159     0.0196  0.000e+00
     17.650     9.9287 192.594076    275.677    8.69201   76.93559 9.3342e+00     0.7988    81.8974     0.2916     0.0197  0.000e+00
     17.686     9.9229 192.714566    275.896    8.69340   76.93730 9.2534e+00     0.7986    81.9023     0.2577     0.0201  0.000e+00
     17.723     9.9214 192.594082    275.735    8.70441   77.03199 9.1994e+00     0.8032    81.8069     0.2542     0.0208  0.000e+00
     17.763     9.9192 192.443477    275.537    8.73848   77.32945 9.0890e+00     0.7959    81.9566     0.2438     0.0215  0.000e+00
     17.802     9.9146 192.473602    275.616    8.78191   77.70543 8.9864e+00     0.7995    81.8842     0.2605     0.0221  0.000e+00
     17.840     9.9105 192.473605    275.649    8.83226   78.14324 8.8864e+00     0.7917    82.0438     0.2592     0.0223  0.000e+00
     17.874     9.9076 192.594093    275.844    8.87431   78.51010 8.7860e+00     0.8003    81.8678     0.2624     0.0211  0.000e+00
     17.908     9.9061 192.714581    276.028    8.90543   78.78267 8.6945e+00     0.7898    82.0816     0.2659     0.0217  0.000e+00
     17.946     9.9068 192.473609    275.678    8.91615   78.87859 8.5825e+00     0.7916    82.0454     0.2445     0.0218  0.000e+00
     17.993     9.9060 192.292884    275.425    8.90574   78.78505 8.4239e+00     0.7898    82.0816     0.2899     0.0208  0.000e+00
     18.044     9.9001 192.202526    275.343    8.88202   78.56409 8.3168e+00     0.7961    81.9533     0.3465     0.0207  0.000e+00
     18.097     9.8924 191.961566    275.058    8.85227   78.28677 8.1878e+00     0.7995    81.8826     0.4004     0.0208  0.000e+00
     18.147     9.8838 192.021813    275.212    8.81553   77.94609 8.0823e+00     0.8045    81.7806     0.3487     0.0211  0.000e+00
     18.189     9.8785 192.323026    275.686    8.78453   77.66228 8.0251e+00     0.8119    81.6293     0.2946     0.0204  0.000e+00
     18.229     9.8805 192.142299    275.411    8.76270   77.47295 7.9258e+00     0.8156    81.5552     0.2714     0.0199  0.000e+00
     18.269     9.8819 192.172420    275.443    8.74137   77.28695 7.8515e+00     0.8196    81.4730     0.2599     0.0195  0.000e+00
     18.309     9.8818 192.202542    275.486    8.72755   77.16467 7.7765e+00     0.8243    81.3776     0.2583     0.0214  0.000e+00
     18.352     9.8820 192.082059    275.313    8.70850   76.99640 7.6912e+00     0.8303    81.2558     0.2595     0.0210  0.000e+00
     18.399     9.8793 192.021820    275.248    8.67809   76.72264 7.5772e+00     0.8261    81.3414     0.2909     0.0206  0.000e+00
     18.444     9.8743 192.021824    275.287    8.63761   76.35576 7.4675e+00     0.8322    81.2164     0.3321     0.0200  0.000e+00
     18.491     9.8704 191.901345    275.145    8.58808   75.91092 7.3685e+00     0.8348    81.1637     0.2970     0.0204  0.000e+00
     18.543     9.8645 191.780869    275.019    8.52879   75.37618 7.2592e+00     0.8415    81.0272     0.2570     0.0200  0.000e+00
     18.590     9.8542 191.750756    275.057    8.47039   74.84194 7.1694e+00     0.8411    81.0354     0.2284     0.0194  0.000e+00
     18.636     9.8444 191.780883    275.177    8.42033   74.38246 7.0554e+00     0.8357    81.1456     0.2282     0.0198  0.000e+00
     18.674     9.8401 191.961609    275.471    8.38265   74.04218 7.0104e+00     0.8390    81.0782     0.2539     0.0200  0.000e+00
     18.707     9.8411 192.202574    275.809    8.36438   73.88259 7.0016e+00     0.8413    81.0321     0.2943     0.0205  0.000e+00
     18.737     9.8466 192.292934    275.895    8.35654   73.82286 6.9359e+00     0.8474    80.9088     0.2908     0.0192  0.000e+00
     18.769     9.8510 192.383295    275.990    8.35579   73.82400 6.8854e+00     0.8532    80.7920     0.2786     0.0198  0.000e+00
     18.805     9.8533 192.112206    275.583    8.34876   73.76578 6.8256e+00     0.8458    80.9400     0.3072     0.0209  0.000e+00
     18.843     9.8525 191.901363    275.287    8.34126   73.69807 6.7242e+00     0.8490    80.8759     0.2821     0.0205  0.000e+00
     18.887     9.8454 191.871248    275.299    8.32503   73.54240 6.6362e+00     0.8476    80.9038     0.2519     0.0202  0.000e+00
     18.931     9.8351 191.720653    275.165    8.29328   73.24404 6.5539e+00     0.8518    80.8199     0.2588     0.0219  0.000e+00
     18.984     9.8228 191.660422    275.176    8.26145   72.94161 6.4600e+00     0.8572    80.7114     0.4017     0.0222  0.000e+00
     19.035     9.8106 191.539950    275.099    8.22886   72.63303 6.3686e+00     0.8539    80.7772     0.3851     0.0214  0.000e+00
     19.095     9.7986 191.329120    274.890    8.20473   72.39946 6.2427e+00     0.8537    80.7821     0.3928     0.0204  0.000e+00
     19.152     9.7852 191.329130    274.996    8.19849   72.32141 6.1225e+00     0.8536    80.7837     0.4533     0.0211  0.000e+00
     19.200     9.7757 191.419496    275.201    8.21589   72.45867 6.0508e+00     0.8758    80.3363     0.3964     0.0214  0.000e+00
     19.240     9.7733 191.539977    275.394    8.25672   72.81464 6.0132e+00     0.8767    80.3182     0.3495     0.0210  0.000e+00
     19.279     9.7754 191.901419    275.897    8.30570   73.25036 5.9438e+00     0.8668    80.5172     0.3291     0.0220  0.000e+00
     19.310     9.7765 192.112263    276.192    8.35401   73.67830 5.8679e+00     0.8702    80.4482     0.3681     0.0214  0.000e+00
     19.340     9.7747 192.142386    276.249    8.39108   74.00220 5.8003e+00     0.8621    80.6110     0.3444     0.0215  0.000e+00
     19.373     9.7728 192.082146    276.177    8.41131   74.17730 5.7333e+00     0.8626    80.6011     0.3367     0.0206  0.000e+00
     19.406     9.7721 192.082147    276.183    8.40389   74.11059 5.6733e+00     0.8738    80.3758     0.3145     0.0198  0.000e+00
     19.440     9.7727 191.750822    275.702    8.37632   73.86833 5.6128e+00     0.8611    80.6324     0.2906     0.0210  0.000e+00
     19.483     9.7728 191.539982    275.398    8.33289   73.48544 5.5272e+00     0.8677    80.4991     0.2623     0.0210  0.000e+00
     19.533     9.7687 191.389386    275.214    8.27893   73.00248 5.4381e+00     0.8701    80.4498     0.2470     0.0200  0.000e+00
     19.590     9.7593 191.148437    274.942    8.23812   72.62650 5.3609e+00     0.8682    80.4893     0.2329     0.0211  0.000e+00
     19.647     9.7497 191.088205    274.931    8.22102   72.45924 5.2715e+00     0.8728    80.3955     0.2198     0.0209  0.000e+00
     19.696     9.7423 191.329166    275.336    8.23701   72.58753 5.2200e+00     0.8739    80.3741     0.2325     0.0211  0.000e+00
     19.737     9.7419 191.419526    275.469    8.29771   73.12179 5.1828e+00     0.8757    80.3379     0.3136     0.0206  0.000e+00
     19.769     9.7452 191.961688    276.223    8.37268   73.78843 5.1311e+00     0.8783    80.2869     0.3104     0.0201  0.000e+00
     19.799     9.7480 192.202652    276.548    8.45691   74.53569 5.0881e+00     0.8901    80.0501     0.2870     0.0204  0.000e+00
     19.830     9.7461 192.232775    276.606    8.52273   75.11249 5.0500e+00     0.8775    80.3017     0.3082     0.0210  0.000e+00
     19.864     9.7439 192.262898    276.668    8.57635   75.58107 5.0051e+00     0.8728    80.3955     0.3204     0.0211  0.000e+00
     19.905     9.7433 191.901450    276.152    8.58360   75.64386 4.9498e+00     0.8879    80.0945     0.2974     0.0220  0.000e+00
     19.951     9.7439 191.419529    275.454    8.56095   75.44503 4.8803e+00     0.8853    80.1455     0.3222     0.0224  0.000e+00
     20.007     9.7420 191.238813    275.209    8.50913   74.98493 4.8273e+00     0.8883    80.0863     0.2983     0.0221  0.000e+00
     20.071     9.7356 191.027983    274.956    8.43877   74.35367 4.7408e+00     0.8976    79.8987     0.2878     0.0217  0.000e+00
     20.134     9.7272 190.877394    274.806    8.38875   73.89808 4.6557e+00     0.9051    79.7490     0.2779     0.0227  0.000e+00
     20.191     9.7184 190.907519    274.919    8.36403   73.66508 4.6101e+00     0.9000    79.8510     0.2696     0.0230  0.000e+00
     20.238     9.7147 190.967761    275.035    8.37758   73.77793 4.5681e+00     0.9131    79.5911     0.2747     0.0215  0.000e+00
     20.273     9.7160 191.600271    275.935    8.41832   74.13927 4.5087e+00     0.9026    79.8000     0.2528     0.0219  0.000e+00
     20.300     9.7197 192.082196    276.600    8.47731   74.66543 4.5055e+00     0.9065    79.7211     0.2331     0.0226  0.000e+00
     20.324     9.7166 192.232802    276.842    8.54195   75.22923 4.4557e+00     0.9094    79.6635     0.2307     0.0228  0.000e+00
     20.349     9.7143 192.323167    276.990    8.58553   75.60904 4.4238e+00     0.9116    79.6207     0.2368     0.0243  0.000e+00
     20.377     9.7237 192.232799    276.785    8.60303   75.78004 4.3930e+00     0.9095    79.6618     0.2316     0.0253  0.000e+00
     20.407     9.7372 191.961704    276.287    8.59053   75.69398 4.3412e+00     0.9027    79.7984     0.2279     0.0257  0.000e+00
     20.441     9.7436 191.871339    276.106    8.54422   75.29724 4.2832e+00     0.9060    79.7326     0.2378     0.0246  0.000e+00
     20.485     9.7432 191.479778    275.546    8.48799   74.80093 4.2320e+00     0.9129    79.5944     0.2316     0.0229  0.000e+00
     20.537     9.7376 191.088228    275.027    8.42484   74.23452 4.1724e+00     0.9113    79.6273     0.2218     0.0223  0.000e+00
     20.598     9.7293 190.907520    274.832    8.36650   73.70585 4.0915e+00     0.9134    79.5845     0.2304     0.0225  0.000e+00
     20.660     9.7210 190.817169    274.768    8.32922   73.36309 4.0251e+00     0.9200    79.4529     0.2743     0.0224  0.000e+00
     20.714     9.7130 190.787056    274.788    8.32201   73.28565 3.9941e+00     0.9165    79.5237     0.3046     0.0224  0.000e+00
     20.757     9.7073 191.329207    275.614    8.36113   73.62029 3.9434e+00     0.9177    79.4990     0.3779     0.0224  0.000e+00
     20.792     9.7079 191.540046    275.913    8.40872   74.04060 3.9004e+00     0.9124    79.6043     0.3680     0.0224  0.000e+00
     20.826     9.7082 191.660526    276.084    8.46780   74.56124 3.8752e+00     0.9108    79.6355     0.3444     0.0223  0.000e+00
     20.863     9.7069 191.720768    276.181    8.51899   75.00974 3.8295e+00     0.9129    79.5944     0.3293     0.0220  0.000e+00
     20.910     9.7060 191.329211    275.624    8.54976   75.27887 3.7734e+00     0.9208    79.4381     0.3136     0.0214  0.000e+00
     20.963     9.7040 190.967780    275.120    8.55497   75.32102 3.7134e+00     0.9211    79.4315     0.3882     0.0211  0.000e+00
     21.014     9.7011 191.028021    275.229    8.53502   75.14033 3.6662e+00     0.9266    79.3230     0.3680     0.0212  0.000e+00
     21.061     9.6982 191.028024    275.253    8.50480   74.86910 3.6241e+00     0.9150    79.5533     0.3839     0.0221  0.000e+00
     21.098     9.6961 191.208742    275.529    8.47516   74.60460 3.5871e+00     0.9252    79.3509     0.3793     0.0230  0.000e+00
     21.135     9.6961 191.329221    275.703    8.46610   74.52483 3.5639e+00     0.9319    79.2177     0.3892     0.0236  0.000e+00
     21.169     9.6968 191.329221    275.698    8.47806   74.63129 3.5313e+00     0.9254    79.3460     0.3696     0.0240  0.000e+00
     21.200     9.6966 191.540060    276.003    8.50518   74.86974 3.5040e+00     0.9384    79.0877     0.3247     0.0227  0.000e+00
     21.229     9.6966 191.660541    276.176    8.54482   75.21883 3.4744e+00     0.9314    79.2276     0.3012     0.0225  0.000e+00
     21.256     9.6966 191.540061    276.003    8.57518   75.48599 3.4290e+00     0.9356    79.1437     0.2709     0.0232  0.000e+00
     21.278     9.6964 191.419582    275.830    8.59110   75.62588 3.3816e+00     0.9415    79.0269     0.2873     0.0325  0.000e+00
     21.292     9.6967 190.967791    275.178    8.58590   75.58036 3.3205e+00     0.9484    78.8903     0.2989     0.2122  0.000e+00
     21.303     9.6945 190.967792    275.195    8.55588   75.31221 3.2605e+00     0.9509    78.8410     0.2793     0.2457  0.000e+00
     21.316     9.6923 190.967794    275.212    8.51312   74.93183 3.2206e+00     0.9486    78.8870     0.2597     0.1808  0.000e+00
     21.322     9.6927 190.967794    275.209    8.46136   74.47707 3.1917e+00     0.9491    78.8772     0.2476     0.1225  0.000e+00
     21.328     9.6944 191.028031    275.283    8.42116   74.12616 3.1435e+00     0.9404    79.0499     0.3162     0.0822  0.000e+00
     21.333     9.6951 190.967792    275.190    8.38515   73.81041 3.1085e+00     0.9306    79.2440     0.3880     0.0575  0.000e+00
     21.340     9.6950 191.028031    275.277    8.35978   73.58703 3.0654e+00     0.9312    79.2309     0.6355     0.0423  0.000e+00
     21.346     9.6947 191.028031    275.280    8.34515   73.45772 3.0522e+00     0.9300    79.2555     0.8366     0.0323  0.000e+00
     21.353     9.6944 191.088270    275.370    8.32889   73.31391 2.9995e+00     0.9527    78.8064     0.8633     0.0274  0.000e+00
     21.359     9.6938 191.118390    275.417    8.31284   73.17174 2.9574e+00     0.9309    79.2374     0.7948     0.0240  0.000e+00
     21.365     9.6935 191.088271    275.376    8.29160   72.98420 2.8928e+00     0.9435    78.9874     0.8389     0.0214  0.000e+00
     21.368     9.6936 191.118390    275.419    8.26396   72.74100 2.8361e+00     0.9368    79.1206     0.9588     0.0202  0.000e+00
     21.371     9.6937 191.208748    275.549    8.22988   72.44135 2.7886e+00     0.9362    79.1322     1.0847     0.0186  0.000e+00
     21.370     9.6943 191.238867    275.587    8.19663   72.14973 2.7499e+00     0.9293    79.2687     1.0053     0.0177  0.000e+00
     21.370     9.6952 191.268986    275.624    8.16064   71.83434 2.7285e+00     0.9227    79.4003     0.9541     0.0175  0.000e+00
     21.371     9.6963 191.329225    275.702    8.12551   71.52697 2.7201e+00     0.9455    78.9479     0.9415     0.0174  0.000e+00
     21.372     9.6974 191.329224    275.692    8.09438   71.25494 2.7107e+00     0.9192    79.4694     1.0804     0.0179  0.000e+00
     21.371     9.6986 191.419583    275.813    8.07115   71.05241 2.7132e+00     0.9320    79.2160     1.2734     0.0181  0.000e+00
     21.372     9.6998 191.389462    275.760    8.03306   70.71910 2.7142e+00     0.9391    79.0746     1.3645     0.0171  0.000e+00
     21.371     9.7008 191.419581    275.795    8.01858   70.59343 2.7117e+00     0.9577    78.7077     1.3301     0.0178  0.000e+00
     21.372     9.7021 191.449700    275.829    8.00207   70.45024 2.7058e+00     0.9849    78.1748     1.3165     0.0181  0.000e+00
     21.372     9.7034 191.419580    275.776    7.98249   70.27987 2.7097e+00     0.9981    77.9165     1.2061     0.0171  0.000e+00
     21.373     9.7046 191.449699    275.809    7.97116   70.18223 2.7048e+00     1.0772    76.3916     0.9791     0.0171  0.000e+00
     21.372     9.7060 191.479818    275.841    7.95343   70.02839 2.7058e+00     1.1394    75.2121     0.8261     0.0163  0.000e+00
     21.372     9.7073 191.540057    275.918    7.94161   69.92656 2.7053e+00     1.2008    74.0672     0.7776     0.0175  0.000e+00
     21.372     9.7085 191.540056    275.908    7.92655   69.79586 2.7029e+00     1.5349    68.1320     0.6500     0.0169  0.000e+00
     21.373     9.7098 191.509935    275.854    7.91737   69.71722 2.7038e+00     1.6917    65.5132     0.5498     0.0175  0.000e+00
     21.373     9.7111 191.600294    275.974    7.89802   69.54897 2.7043e+00     2.5155    53.3188     0.6051     0.0188  0.000e+00
     21.373     9.7125 191.540053    275.876    7.87745   69.37015 2.7088e+00     3.2656    44.2022     0.7955     0.0195  0.000e+00
     21.373     9.7138 191.660533    276.039    7.85790   69.20011 2.7029e+00     3.7728    38.9383     0.8489     0.0183  0.000e+00
     21.373     9.7150 191.660532    276.030    7.84475   69.08631 2.7029e+00     4.8957    29.4071     0.8344     0.0174  0.000e+00
     21.373     9.7166 191.660531    276.018    7.82198   68.88827 2.7043e+00     4.9614    28.9284     0.7401     0.0177  0.000e+00
     21.373     9.7179 191.660530    276.007    7.79586   68.66034 2.6999e+00     3.6918    39.7344     0.6192     0.0166  0.000e+00
     21.373     9.7191 191.660529    275.997    7.77088   68.44238 2.6989e+00     3.1553    45.4376     0.5384     0.0169  0.000e+00
     21.374     9.7205 191.600288    275.900    7.74964   68.25753 2.6999e+00     2.7976    49.6883     0.4784     0.0177  0.000e+00
     21.374     9.7218 191.660528    275.976    7.72110   68.00820 2.7033e+00     2.1299    58.7144     0.4443     0.0194  0.000e+00
     21.374     9.7230 191.660527    275.967    7.70802   67.89494 2.7024e+00     1.8505    62.9635     0.3976     0.0188  0.000e+00
     21.375     9.7242 191.690646    276.000    7.67871   67.63876 2.7127e+00     1.9230    61.8317     0.3548     0.0178  0.000e+00
     21.375     9.7255 191.720766    276.033    7.65252   67.41015 2.6979e+00     1.6954    65.4523     0.4114     0.0179  0.000e+00
     21.376     9.7267 191.811126    276.154    7.63092   67.22175 2.7014e+00     1.7355    64.7993     0.4933     0.0180  0.000e+00
     21.378     9.7281 191.781005    276.100    7.60877   67.02885 2.6975e+00     1.6403    66.3604     0.5728     0.0169  0.000e+00
     21.379     9.7291 191.690643    275.961    7.58606   66.83038 2.7122e+00     1.4309    69.9267     0.6655     0.0174  0.000e+00
     21.383     9.7304 191.720763    275.994    7.56662   66.66114 2.7300e+00     1.2988    72.2742     0.7590     0.0179  0.000e+00
     21.391     9.7314 191.660522    275.900    7.54770   66.49596 2.7942e+00     1.1893    74.2811     0.6799     0.0183  0.000e+00
     21.393     9.7322 191.660522    275.893    7.52541   66.30096 2.8625e+00     1.1135    75.7007     0.6929     0.0179  0.000e+00
     21.396     9.7324 191.600281    275.805    7.51311   66.19274 2.9377e+00     1.0444    77.0200     0.9370     0.0173  0.000e+00
     21.400     9.7320 191.660522    275.895    7.49832   66.06203 3.0012e+00     1.0814    76.3110     1.1788     0.0166  0.000e+00
