* Sea-Bird SBE19plus  Data File:
* FileName = C:\Users\haydenmh.UMROOT\Desktop\HABS DATA\7.13.20\SBE\RAW\SBE19plus_01906619_2020_07_13_0001.hex
* Software version 2.8.0.119
* Temperature SN = 6619
* Conductivity SN = 6619
* System UpLoad Time = Jul 13 2020 12:24:23
* <ApplicationData>
* <Seaterm232>
* <SoftwareVersion>2.8.0.119</SoftwareVersion>
* <BuildDate>07-Nov-2018</BuildDate>
* </Seaterm232>
* </ApplicationData>
* <InstrumentState>
* <HardwareData DeviceType='SBE19plus' SerialNumber='01906619'>
*
*    <Manufacturer>Sea-Bird Electronics, Inc.</Manufacturer>
*
*    <FirmwareVersion>2.5.2</FirmwareVersion>
*
*    <FirmwareDate>12 Mar 2013 11:50</FirmwareDate>
*
*    <CommandSetVersion>1.3</CommandSetVersion>
*
*    <PCBAssembly PCBSerialNum='20590' AssemblyNum='41054G'/>
*
*    <PCBAssembly PCBSerialNum='22204' AssemblyNum='41580B'/>
*
*    <PCBAssembly PCBSerialNum='20123' AssemblyNum='41606'/>
*
*    <PCBAssembly PCBSerialNum='20847' AssemblyNum='41059D'/>
*
*    <MfgDate>  30 JUL 2010</MfgDate>
*
*    <InternalSensors>
*
*       <Sensor id='Main Temperature'>
*
*          <type>temperature0</type>
*
*          <SerialNumber>01906619</SerialNumber>
*
*       </Sensor>
*
*       <Sensor id='Main Conductivity'>
*
*          <type>conductivity-0</type>
*
*          <SerialNumber>01906619</SerialNumber>
*
*       </Sensor>
*
*       <Sensor id='Main Pressure'>
*
*          <type>strain-0</type>
*
*          <SerialNumber>3097822</SerialNumber>
*
*       </Sensor>
*
*    </InternalSensors>
*
*    <ExternalSensors>
*
*       <Sensor id='volt 0'>
*
*          <type>not assigned</type>
*
*          <SerialNumber>not assigned</SerialNumber>
*
*       </Sensor>
*
*       <Sensor id='volt 1'>
*
*          <type>not assigned</type>
*
*          <SerialNumber>not assigned</SerialNumber>
*
*       </Sensor>
*
*       <Sensor id='volt 2'>
*
*          <type>not assigned</type>
*
*          <SerialNumber>not assigned</SerialNumber>
*
*       </Sensor>
*
*       <Sensor id='volt 3'>
*
*          <type>not assigned</type>
*
*          <SerialNumber>not assigned</SerialNumber>
*
*       </Sensor>
*
*       <Sensor id='volt 4'>
*
*          <type>not assigned</type>
*
*          <SerialNumber>not assigned</SerialNumber>
*
*       </Sensor>
*
*       <Sensor id='volt 5'>
*
*          <type>not assigned</type>
*
*          <SerialNumber>not assigned</SerialNumber>
*
*       </Sensor>
*
*       <Sensor id='serial'>
*
*          <type>not assigned</type>
*
*          <SerialNumber>not assigned</SerialNumber>
*
*       </Sensor>
*
*    </ExternalSensors>
*
* </HardwareData>
* <StatusData DeviceType='SBE19plus' SerialNumber='01906619'>
*
*    <DateTime>2020-07-13T16:26:34</DateTime>
*
*    <LoggingState>not logging</LoggingState>
*
*    <EventSummary numEvents='0'/>
*
*    <Power>
*
*       <vMain>13.2</vMain>
*
*       <vLith>8.2</vLith>
*
*       <iMain>62.5</iMain>
*
*       <iPump>31.9</iPump>
*
*       <iExt01> 4.7</iExt01>
*
*       <iExt2345>81.5</iExt2345>
*
*    </Power>
*
*    <MemorySummary>
*
*       <Bytes>59547</Bytes>
*
*       <Samples>2589</Samples>
*
*       <SamplesFree>2858199</SamplesFree>
*
*       <SampleLength>23</SampleLength>
*
*       <Profiles>5</Profiles>
*
*    </MemorySummary>
*
* </StatusData>
* <ConfigurationData DeviceType='SBE19plus' SerialNumber='01906619'>
*
*    <ProfileMode>
*
*       <ScansToAverage>1</ScansToAverage>
*
*       <MinimumCondFreq>0</MinimumCondFreq>
*
*       <PumpDelay>30</PumpDelay>
*
*       <AutoRun>no</AutoRun>
*
*       <IgnoreSwitch>no</IgnoreSwitch>
*
*    </ProfileMode>
*
*    <Battery>
*
*       <Type>alkaline</Type>
*
*       <CutOff>7.5</CutOff>
*
*    </Battery>
*
*    <DataChannels>
*
*       <ExtVolt0>yes</ExtVolt0>
*
*       <ExtVolt1>yes</ExtVolt1>
*
*       <ExtVolt2>yes</ExtVolt2>
*
*       <ExtVolt3>yes</ExtVolt3>
*
*       <ExtVolt4>yes</ExtVolt4>
*
*       <ExtVolt5>yes</ExtVolt5>
*
*       <SBE38>no</SBE38>
*
*       <WETLABS>no</WETLABS>
*
*       <OPTODE>no</OPTODE>
*
*       <SBE63>no</SBE63>
*
*       <GTD>no</GTD>
*
*    </DataChannels>
*
*    <EchoCharacters>yes</EchoCharacters>
*
*    <OutputExecutedTag>yes</OutputExecutedTag>
*
*    <OutputFormat>raw HEX</OutputFormat>
*
* </ConfigurationData>
* <CalibrationCoefficients DeviceType='SBE19plus' SerialNumber='01906619'>
*
*    <Calibration format='TEMP1' id='Main Temperature'>
*
*       <SerialNum>01906619</SerialNum>
*
*       <CalDate>22-Jan-20</CalDate>
*
*       <TA0>1.286198e-03</TA0>
*
*       <TA1>2.590090e-04</TA1>
*
*       <TA2>-1.314748e-07</TA2>
*
*       <TA3>1.427154e-07</TA3>
*
*       <TOFFSET>0.000000e+00</TOFFSET>
*
*    </Calibration>
*
*    <Calibration format='WBCOND0' id='Main Conductivity'>
*
*       <SerialNum>01906619</SerialNum>
*
*       <CalDate>22-Jan-20</CalDate>
*
*       <G>-1.021244e+00</G>
*
*       <H>1.446258e-01</H>
*
*       <I>-1.924818e-04</I>
*
*       <J>3.517041e-05</J>
*
*       <CPCOR>-9.570000e-08</CPCOR>
*
*       <CTCOR>3.250000e-06</CTCOR>
*
*       <CSLOPE>1.000000e+00</CSLOPE>
*
*    </Calibration>
*
*    <Calibration format='STRAIN0' id='Main Pressure'>
*
*       <SerialNum>3097822</SerialNum>
*
*       <CalDate>17-Jan-20</CalDate>
*
*       <PA0>-6.046974e-02</PA0>
*
*       <PA1>1.551346e-03</PA1>
*
*       <PA2>6.096294e-12</PA2>
*
*       <PTCA0>5.249213e+05</PTCA0>
*
*       <PTCA1>1.137195e+00</PTCA1>
*
*       <PTCA2>-1.340391e-01</PTCA2>
*
*       <PTCB0>2.495187e+01</PTCB0>
*
*       <PTCB1>-6.250000e-04</PTCB1>
*
*       <PTCB2>0.000000e+00</PTCB2>
*
*       <PTEMPA0>-6.560702e+01</PTEMPA0>
*
*       <PTEMPA1>5.169564e+01</PTEMPA1>
*
*       <PTEMPA2>-2.846411e-01</PTEMPA2>
*
*       <POFFSET>0.000000e+00</POFFSET>
*
*       <PRANGE>5.080000e+02</PRANGE>
*
*    </Calibration>
*
*    <Calibration format='VOLT0' id='Volt 0'>
*
*       <OFFSET>-4.714526e-02</OFFSET>
*
*       <SLOPE>1.246485e+00</SLOPE>
*
*    </Calibration>
*
*    <Calibration format='VOLT0' id='Volt 1'>
*
*       <OFFSET>-4.759684e-02</OFFSET>
*
*       <SLOPE>1.247567e+00</SLOPE>
*
*    </Calibration>
*
*    <Calibration format='VOLT0' id='Volt 2'>
*
*       <OFFSET>-4.757684e-02</OFFSET>
*
*       <SLOPE>1.247228e+00</SLOPE>
*
*    </Calibration>
*
*    <Calibration format='VOLT0' id='Volt 3'>
*
*       <OFFSET>-4.769790e-02</OFFSET>
*
*       <SLOPE>1.246365e+00</SLOPE>
*
*    </Calibration>
*
*    <Calibration format='VOLT0' id='Volt 4'>
*
*       <OFFSET>-4.708632e-02</OFFSET>
*
*       <SLOPE>1.247071e+00</SLOPE>
*
*    </Calibration>
*
*    <Calibration format='VOLT0' id='Volt 5'>
*
*       <OFFSET>-4.747369e-02</OFFSET>
*
*       <SLOPE>1.247047e+00</SLOPE>
*
*    </Calibration>
*
*    <Calibration format='FREQ0' id='external frequency channel'>
*
*       <EXTFREQSF>9.999977e-01</EXTFREQSF>
*
*    </Calibration>
*
* </CalibrationCoefficients>
* <EventCounters DeviceType='SBE19plus' SerialNumber='01906619'>
*
*    <EventSummary numEvents='0'/>
*
* </EventCounters></InstrumentState>
* <Headers>
*
* cast   1 13 Jul 2020 12:00:11 samples 1 to 525, avg = 1, stop = mag switch
*
# nquan = 12
# nvalues = 424                                   
# units = specified
# name 0 = depFM: Depth [fresh water, m]
# name 1 = tv290C: Temperature [ITS-90, deg C]
# name 2 = c0uS/cm: Conductivity [uS/cm]
# name 3 = specc: Specific Conductance [uS/cm]
# name 4 = par: PAR/Irradiance, Biospherical/Licor
# name 5 = sbeox0Mg/L: Oxygen, SBE 43 [mg/l]
# name 6 = sbeox0PS: Oxygen, SBE 43 [% saturation]
# name 7 = CStarAt0: Beam Attenuation, WET Labs C-Star [1/m]
# name 8 = CStarTr0: Beam Transmission, WET Labs C-Star [%]
# name 9 = phycyflTC0: Phycocyanin, Turner Cyclops [RFU]
# name 10 = flECO-AFL: Fluorescence, WET Labs ECO-AFL/FL [mg/m^3]
# name 11 = flag:  0.000e+00
# span 0 =     -0.318,      5.187                 
# span 1 =    20.8176,    26.6364                 
# span 2 =   7.240783, 327.854754                 
# span 3 =      7.899,    335.521                 
# span 4 = 4.4857e+00, 1.9473e+03                 
# span 5 =     5.5661,     8.9661                 
# span 6 =     69.406,    110.689                 
# span 7 =     0.0347,    14.9206                 
# span 8 =     2.3989,    99.1351                 
# span 9 =     0.0000,     1.5686                 
# span 10 =     0.3624,     5.6633                
# span 11 = 0.0000e+00, 0.0000e+00                
# interval = seconds: 0.25
# start_time = Jul 13 2020 12:00:11 [Instrument's time stamp, header]
# bad_flag = -9.990e-29
# <Sensors count="9" >
#   <sensor Channel="1" >
#     <!-- Count, Temperature -->
#     <TemperatureSensor SensorID="58" >
#       <SerialNumber>6619</SerialNumber>
#       <CalibrationDate>22-Jan-20</CalibrationDate>
#       <A0>1.28619833e-003</A0>
#       <A1>2.59009007e-004</A1>
#       <A2>-1.31474778e-007</A2>
#       <A3>1.42715415e-007</A3>
#       <Slope>1.00000000</Slope>
#       <Offset>0.0000</Offset>
#     </TemperatureSensor>
#   </sensor>
#   <sensor Channel="2" >
#     <!-- Frequency 0, Conductivity -->
#     <ConductivitySensor SensorID="3" >
#       <SerialNumber>6619</SerialNumber>
#       <CalibrationDate>22-Jan-20</CalibrationDate>
#       <UseG_J>1</UseG_J>
#       <!-- Cell const and series R are applicable only for wide range sensors. -->
#       <SeriesR>0.0000</SeriesR>
#       <CellConst>2000.0000</CellConst>
#       <ConductivityType>0</ConductivityType>
#       <Coefficients equation="0" >
#         <A>0.00000000e+000</A>
#         <B>0.00000000e+000</B>
#         <C>0.00000000e+000</C>
#         <D>0.00000000e+000</D>
#         <M>0.0</M>
#         <CPcor>-9.57000000e-008</CPcor>
#       </Coefficients>
#       <Coefficients equation="1" >
#         <G>-1.02124413e+000</G>
#         <H>1.44625778e-001</H>
#         <I>-1.92481830e-004</I>
#         <J>3.51704133e-005</J>
#         <CPcor>-9.57000000e-008</CPcor>
#         <CTcor>3.2500e-006</CTcor>
#         <!-- WBOTC not applicable unless ConductivityType = 1. -->
#         <WBOTC>0.00000000e+000</WBOTC>
#       </Coefficients>
#       <Slope>1.00000000</Slope>
#       <Offset>0.00000</Offset>
#     </ConductivitySensor>
#   </sensor>
#   <sensor Channel="3" >
#     <!-- Count, Pressure, Strain Gauge -->
#     <PressureSensor SensorID="46" >
#       <SerialNumber>6619</SerialNumber>
#       <CalibrationDate>17-Jan-20</CalibrationDate>
#       <PA0>-6.04697398e-002</PA0>
#       <PA1>1.55134611e-003</PA1>
#       <PA2>6.09629416e-012</PA2>
#       <PTEMPA0>-6.56070203e+001</PTEMPA0>
#       <PTEMPA1>5.16956414e+001</PTEMPA1>
#       <PTEMPA2>-2.84641077e-001</PTEMPA2>
#       <PTCA0>5.24921286e+005</PTCA0>
#       <PTCA1>1.13719502e+000</PTCA1>
#       <PTCA2>-1.34039056e-001</PTCA2>
#       <PTCB0>2.49518750e+001</PTCB0>
#       <PTCB1>-6.25000000e-004</PTCB1>
#       <PTCB2>0.00000000e+000</PTCB2>
#       <Offset>0.000000</Offset>
#     </PressureSensor>
#   </sensor>
#   <sensor Channel="4" >
#     <!-- A/D voltage 0, Oxygen, SBE 43 -->
#     <OxygenSensor SensorID="38" >
#       <SerialNumber>2360</SerialNumber>
#       <CalibrationDate>28-Jan-20</CalibrationDate>
#       <Use2007Equation>1</Use2007Equation>
#       <CalibrationCoefficients equation="0" >
#         <!-- Coefficients for Owens-Millard equation. -->
#         <Boc>0.0000</Boc>
#         <Soc>0.0000e+000</Soc>
#         <offset>0.0000</offset>
#         <Pcor>0.00e+000</Pcor>
#         <Tcor>0.0000</Tcor>
#         <Tau>0.0</Tau>
#       </CalibrationCoefficients>
#       <CalibrationCoefficients equation="1" >
#         <!-- Coefficients for Sea-Bird equation - SBE calibration in 2007 and later. -->
#         <Soc>4.3967e-001</Soc>
#         <offset>-0.4873</offset>
#         <A>-4.2797e-003</A>
#         <B> 1.4753e-004</B>
#         <C>-1.4475e-006</C>
#         <D0> 2.5826e+000</D0>
#         <D1> 1.92634e-004</D1>
#         <D2>-4.64803e-002</D2>
#         <E> 3.6000e-002</E>
#         <Tau20> 1.0300</Tau20>
#         <H1>-3.3000e-002</H1>
#         <H2> 5.0000e+003</H2>
#         <H3> 1.4500e+003</H3>
#       </CalibrationCoefficients>
#     </OxygenSensor>
#   </sensor>
#   <sensor Channel="5" >
#     <!-- A/D voltage 1, Free -->
#   </sensor>
#   <sensor Channel="6" >
#     <!-- A/D voltage 2, Fluorometer, WET Labs ECO-AFL/FL -->
#     <FluoroWetlabECO_AFL_FL_Sensor SensorID="20" >
#       <SerialNumber>2581</SerialNumber>
#       <CalibrationDate>12/19/19</CalibrationDate>
#       <ScaleFactor>2.40000000e+001</ScaleFactor>
#       <!-- Dark output -->
#       <Vblank>0.0290</Vblank>
#     </FluoroWetlabECO_AFL_FL_Sensor>
#   </sensor>
#   <sensor Channel="7" >
#     <!-- A/D voltage 3, Transmissometer, WET Labs C-Star -->
#     <WET_LabsCStar SensorID="71" >
#       <SerialNumber>330-PR</SerialNumber>
#       <CalibrationDate>12/30/19</CalibrationDate>
#       <M>21.6450</M>
#       <B>-1.2771</B>
#       <PathLength>0.250</PathLength>
#     </WET_LabsCStar>
#   </sensor>
#   <sensor Channel="8" >
#     <!-- A/D voltage 4, PAR/Irradiance, Biospherical/Licor -->
#     <PAR_BiosphericalLicorChelseaSensor SensorID="42" >
#       <SerialNumber>70411</SerialNumber>
#       <CalibrationDate>1/17/20</CalibrationDate>
#       <M>1.00000000</M>
#       <B>0.00000000</B>
#       <CalibrationConstant>10582010582.00000000</CalibrationConstant>
#       <Multiplier>1.00000000</Multiplier>
#       <Offset>-0.09515504</Offset>
#     </PAR_BiosphericalLicorChelseaSensor>
#   </sensor>
#   <sensor Channel="9" >
#     <!-- A/D voltage 5, Fluorometer, Turner Cyclops -->
#     <Fluorometer SensorID="68" >
#       <SerialNumber>2101045</SerialNumber>
#       <CalibrationDate></CalibrationDate>
#       <ScaleFactor>1.00000000e+000</ScaleFactor>
#       <Offset>0.00000000e+000</Offset>
#       <!-- 1 = C, Chlorophyll -->
#       <!-- 2 = R, Rhodamine -->
#       <!-- 3 = F, Fluorescein -->
#       <!-- 4 = P, Phycocyanin -->
#       <!-- 5 = E, Phycoerythrin -->
#       <!-- 6 = U, CDOM -->
#       <!-- 7 = O, CrudeOil -->
#       <!-- 8 = B, OpticalBrightness -->
#       <!-- 9 = T, Turbidity -->
#       <!-- 10 = G, Refined Fuels -->
#       <MeasuredParameter>4</MeasuredParameter>
#     </Fluorometer>
#   </sensor>
# </Sensors>
# datcnv_date = Jul 13 2020 12:30:47, 7.26.7.129 [datcnv_vars = 11]
# datcnv_in = C:\Users\haydenmh.UMROOT\Desktop\HABS DATA\7.13.20\SBE\RAW\SBE19plus_01906619_2020_07_13_0001.hex C:\Users\haydenmh.UMROOT\Desktop\HABS DATA\6619HABs2020.xmlcon
# datcnv_skipover = 0
# datcnv_ox_hysteresis_correction = yes
# datcnv_ox_tau_correction = yes
# file_type = ascii
*END*
     -0.313    20.8249   7.450815      8.129 1.9473e+03     8.7600     97.933     0.0347    99.1351     0.0140     1.9664  0.000e+00
     -0.313    20.8250   7.360801      8.031 1.9415e+03     8.7574     97.904     0.1084    97.3268     0.0157     1.9591  0.000e+00
     -0.313    20.8252   7.450815      8.129 1.9300e+03     8.7562     97.892     0.1392    96.5804     0.0155     1.9755  0.000e+00
     -0.315    20.8252   7.450815      8.129 1.9249e+03     8.7584     97.916     0.1375    96.6200     0.0158     1.9078  0.000e+00
     -0.316    20.8249   7.450815      8.129 1.8997e+03     8.7623     97.959     0.1225    96.9833     0.0156     1.9005  0.000e+00
     -0.316    20.8254   7.390806      8.063 1.8755e+03     8.7630     97.968     0.1052    97.4044     0.0150     1.9005  0.000e+00
     -0.313    20.8255   7.450815      8.129 1.8545e+03     8.7625     97.963     0.0931    97.7000     0.0154     1.8968  0.000e+00
     -0.314    20.8257   7.450815      8.129 1.8637e+03     8.7603     97.938     0.0866    97.8586     0.0157     1.9334  0.000e+00
     -0.312    20.8259   7.420810      8.096 1.8539e+03     8.7579     97.912     0.0851    97.8949     0.0159     1.9353  0.000e+00
     -0.313    20.8260   7.450815      8.129 1.8509e+03     8.7628     97.967     0.0869    97.8503     0.0169     1.9353  0.000e+00
     -0.316    20.8260   7.450815      8.129 1.8457e+03     8.7616     97.954     0.0894    97.7892     0.0173     1.9408  0.000e+00
     -0.316    20.8260   7.570834      8.260 1.8254e+03     8.7594     97.929     0.0907    97.7578     0.0176     1.9444  0.000e+00
     -0.314    20.8260   7.240783      7.899 1.7770e+03     8.7614     97.951     0.0898    97.7809     0.0198     1.9371  0.000e+00
     -0.314    20.8261   7.450815      8.129 1.7770e+03     8.7617     97.955     0.0900    97.7743     0.0198     1.9463  0.000e+00
     -0.314    20.8265   7.240783      7.899 1.7717e+03     8.7624     97.963     0.0908    97.7562     0.0189     1.9316  0.000e+00
     -0.313    20.8264   7.510825      8.194 1.7717e+03     8.7614     97.952     0.0880    97.8239     0.0169     1.7540  0.000e+00
     -0.315    20.8264   7.510825      8.194 1.6611e+03     8.7646     97.988     0.0890    97.8008     0.0220     1.7650  0.000e+00
     -0.315    20.8264   7.450815      8.129 1.5362e+03     8.7608     97.945     0.0883    97.8173     0.1245     1.7650  0.000e+00
     -0.315    20.8265   7.510825      8.194 1.7332e+03     8.7571     97.904     0.0883    97.8173     0.0933     1.7595  0.000e+00
     -0.314    20.8262   7.690854      8.390 1.7767e+03     8.7651     97.993     0.0870    97.8486     0.2304     0.4887  0.000e+00
     -0.317    20.8250   7.570834      8.260 1.7789e+03     8.7603     97.937     0.0860    97.8734     0.1972     0.4924  0.000e+00
     -0.314    20.8244   7.810875      8.522 1.7783e+03     8.7628     97.964     0.0856    97.8833     0.1353     0.4850  0.000e+00
     -0.315    20.8241   7.810875      8.522 1.6442e+03     8.7625     97.959     0.0846    97.9081     0.0873     0.4777  0.000e+00
     -0.315    20.8235   8.230953      8.980 1.5741e+03     8.7656     97.994     0.0847    97.9048     0.0616     0.4063  0.000e+00
     -0.314    20.8237   8.891093      9.700 1.7627e+03     8.7614     97.947     0.0846    97.9081     0.0435     0.3990  0.000e+00
     -0.317    20.8243   9.521247     10.388 1.7798e+03     8.7633     97.969     0.0844    97.9130     0.0348     0.4045  0.000e+00
     -0.318    20.8251  10.391491     11.337 1.7534e+03     8.7615     97.951     0.0844    97.9114     0.0593     0.3917  0.000e+00
     -0.316    20.8259  12.012045     13.105 1.6828e+03     8.7613     97.951     0.0841    97.9197     0.0859     0.4100  0.000e+00
     -0.315    20.8232  13.722769     14.972 1.5816e+03     8.7597     97.928     0.0845    97.9097     0.1099     0.3990  0.000e+00
     -0.315    20.8188  14.833316     16.185 1.4035e+03     8.7602     97.926     0.0850    97.8965     0.1199     0.3953  0.000e+00
     -0.315    20.8176  14.593193     15.924 1.5081e+03     8.7597     97.917     0.0860    97.8718     0.0000     0.3935  0.000e+00
     -0.314    20.8179  13.962883     15.236 1.3859e+03     8.7623     97.947     0.0874    97.8387     0.0000     0.4045  0.000e+00
     -0.314    20.8188  13.452646     14.679 1.3460e+03     8.7604     97.927     0.0870    97.8486     0.0000     0.4136  0.000e+00
     -0.316    20.8193  13.452646     14.678 1.3536e+03     8.7640     97.968     0.0870    97.8486     0.0000     0.4045  0.000e+00
     -0.314    20.8198  13.662742     14.908 1.4132e+03     8.7629     97.957     0.0881    97.8206     0.0000     0.3953  0.000e+00
     -0.314    20.8202  14.202998     15.497 1.4978e+03     8.7644     97.974     0.0866    97.8586     0.0961     0.5913  0.000e+00
     -0.315    20.8211  14.533162     15.857 1.5919e+03     8.7667     98.002     0.0844    97.9114     0.4446     0.5876  0.000e+00
     -0.315    20.8217  14.263028     15.562 1.6128e+03     8.7620     97.951     0.0846    97.9081     0.0000     0.5711  0.000e+00
     -0.315    20.8221  13.962882     15.234 1.6362e+03     8.7631     97.964     0.0853    97.8899     0.0000     0.5674  0.000e+00
     -0.316    20.8219  14.082940     15.365 1.6336e+03     8.7665     98.002     0.0857    97.8800     0.0000     0.3880  0.000e+00
     -0.314    20.8207  14.323057     15.628 1.6405e+03     8.7608     97.936     0.0877    97.8321     0.1473     0.3752  0.000e+00
     -0.314    20.8198  14.233013     15.530 1.6576e+03     8.7637     97.966     0.0912    97.7463     0.1698     0.3734  0.000e+00
     -0.304    20.8200  21.347739     23.293 1.6029e+03     8.7617     97.946     0.0945    97.6653     0.3645     0.3624  0.000e+00
     -0.239    21.1432 167.579271    181.566 1.6293e+03     8.7043     97.962     0.0986    97.5646     0.2892     1.5636  0.000e+00
     -0.176    22.5655 224.324090    235.779 1.6173e+03     8.4681     97.971     0.0993    97.5481     0.1730     1.5599  0.000e+00
     -0.132    23.8519 327.854754    335.521 1.5889e+03     8.2682     98.039     0.1015    97.4936     0.0638     1.5452  0.000e+00
     -0.093    24.7153 325.446693    327.271 1.5819e+03     8.1386     98.063     0.1437    96.4714     0.0000     1.5581  0.000e+00
     -0.033    25.2919 324.196920    322.276 1.5700e+03     8.0518     98.052     4.6401    31.3481     0.0000     2.8325  0.000e+00
      0.048    25.7296 323.343417    318.654 1.5889e+03     7.9918     98.103     3.8312    38.3732     0.0000     2.8288  0.000e+00
      0.121    26.0376 322.855658    316.253 1.5908e+03     7.9467     98.097     2.3517    55.5478     0.0000     2.8233  0.000e+00
      0.192    26.2406 322.307093    314.465 1.5389e+03     7.9329     98.286     2.1085    59.0307     0.0000     2.8233  0.000e+00
      0.264    26.3620 321.667240    313.099 1.5241e+03     7.9322     98.493     1.6185    66.7229     0.0000     2.8948  0.000e+00
      0.364    26.4245 321.271165    312.333 9.7612e+02     7.9525     98.857     1.5249    68.3017     0.0000     2.8874  0.000e+00
      0.476    26.4496 321.027447    311.944 3.4977e+02     7.9809     99.255     1.5032    68.6732     0.0199     2.8838  0.000e+00
      0.588    26.4586 320.448674    311.327 2.7479e+02     8.0288     99.866     1.5419    68.0127     0.0328     2.8893  0.000e+00
      0.691    26.4562 319.291193    310.217 2.8367e+02     8.0827    100.533     1.4916    68.8730     0.0449     2.8819  0.000e+00
      0.768    26.4494 318.742942    309.725 2.3046e+02     8.1629    101.517     1.4903    68.8962     0.0508     2.8838  0.000e+00
      0.826    26.4271 318.742967    309.859 2.1414e+02     8.2666    102.766     1.5010    68.7112     0.0515     2.9002  0.000e+00
      0.844    26.3020 318.773555    310.645 2.9033e+02     8.3800    103.941     1.4621    69.3833     0.0503     2.8893  0.000e+00
      0.833    26.1283 317.494513    310.450 2.8085e+02     8.4992    105.088     1.4846    68.9936     0.0497     2.8233  0.000e+00
      0.817    25.9915 318.134255    311.910 2.4821e+02     8.5938    105.994     1.4775    69.1175     0.0498     2.8233  0.000e+00
      0.820    25.9411 320.083690    314.132 2.1257e+02     8.7642    107.998     1.4711    69.2281     0.0456     2.8197  0.000e+00
      0.844    26.0421 321.088807    314.495 2.5341e+02     8.9661    110.689     1.4780    69.1075     0.0446     2.8288  0.000e+00
      0.878    26.1765 320.875435    313.460 2.5745e+02     8.9049    110.201     1.4801    69.0712     0.0440     2.7959  0.000e+00
      0.908    26.2742 320.844872    312.833 2.0751e+02     8.6483    107.215     1.4841    69.0019     0.0459     2.7886  0.000e+00
      0.927    26.3410 320.540190    312.130 1.8935e+02     8.2726    102.681     1.5247    68.3066     0.0460     2.7886  0.000e+00
      0.930    26.3833 320.387840    311.724 2.2137e+02     7.8531     97.549     1.4773    69.1208     0.0474     2.7849  0.000e+00
      0.909    26.4130 320.296426    311.455 2.8283e+02     7.4484     92.571     1.4598    69.4230     0.0567     2.6842  0.000e+00
      0.869    26.4351 320.601012    311.618 2.9104e+02     7.0886     88.135     1.4570    69.4725     0.0576     2.6805  0.000e+00
      0.826    26.4499 320.722841    311.646 3.0024e+02     6.7811     84.334     1.4711    69.2281     0.0546     2.6878  0.000e+00
      0.795    26.4532 320.722836    311.626 2.2196e+02     6.5313     81.232     1.5072    68.6055     0.0554     2.6805  0.000e+00
      0.807    26.4518 320.875146    311.783 1.7755e+02     6.4152     79.786     1.5310    68.1976     0.0870     2.6787  0.000e+00
      0.866    26.4502 320.783764    311.704 2.1227e+02     6.3687     79.205     1.5165    68.4453     0.0839     2.6842  0.000e+00
      0.941    26.4476 319.748104    310.713 2.1630e+02     6.3392     78.835     1.5022    68.6914     0.0737     2.6842  0.000e+00
      0.997    26.4429 317.768305    308.817 1.9616e+02     6.3181     78.565     1.4644    69.3437     0.0628     2.6860  0.000e+00
      1.002    26.4299 317.768319    308.895 1.9207e+02     6.2866     78.155     1.4756    69.1488     0.0546     2.7739  0.000e+00
      0.945    26.2973 317.646626    309.575 2.1238e+02     6.2460     77.465     1.4810    69.0564     0.0556     2.7647  0.000e+00
      0.853    26.1090 317.707731    310.776 2.4821e+02     6.2076     76.727     1.4893    68.9127     0.0602     2.7702  0.000e+00
      0.752    25.9828 317.342377    311.187 2.7162e+02     6.1738     76.134     1.5109    68.5411     0.0614     2.7739  0.000e+00
      0.694    25.9645 320.449191    314.346 2.8592e+02     6.1620     75.964     1.4714    69.2215     0.0538     2.7995  0.000e+00
      0.724    26.0697 321.637097    314.862 2.7181e+02     6.1549     76.021     1.4590    69.4378     0.0460     2.8087  0.000e+00
      0.830    26.2024 321.819738    314.224 1.8942e+02     6.1838     76.562     1.4908    68.8879     0.0513     2.8014  0.000e+00
      0.943    26.3129 321.088527    312.835 2.0809e+02     6.2189     77.151     1.4957    68.8020     0.0478     2.7922  0.000e+00
      1.033    26.3860 320.083234    311.412 1.8995e+02     6.2432     77.554     1.5133    68.5015     0.0521     2.9369  0.000e+00
      1.062    26.4048 319.595853    310.824 1.4721e+02     6.2574     77.757     1.5009    68.7129     0.0625     2.9497  0.000e+00
      1.034    26.3171 318.682170    310.465 1.6690e+02     6.2554     77.609     1.4984    68.7558     0.0587     2.9405  0.000e+00
      0.968    26.2007 318.377706    310.873 1.8615e+02     6.2321     77.157     1.4816    69.0464     0.0543     2.9387  0.000e+00
      0.892    26.1093 318.834674    311.876 2.1482e+02     6.1810     76.398     1.4672    69.2942     0.0512     2.7428  0.000e+00
      0.822    26.0584 319.108854    312.456 2.3604e+02     6.1121     75.478     1.4715    69.2198     0.0508     2.7501  0.000e+00
      0.755    26.0631 319.687578    312.994 2.5044e+02     6.0298     74.467     1.4555    69.4973     0.0530     2.7373  0.000e+00
      0.702    26.1319 320.205330    313.078 2.7224e+02     5.9447     73.508     1.4749    69.1620     0.0507     2.7538  0.000e+00
      0.688    26.2138 320.662160    313.024 3.1979e+02     5.8702     72.695     1.4779    69.1092     0.0536     2.5890  0.000e+00
      0.715    26.2819 321.210401    313.142 2.5367e+02     5.8087     72.022     1.4788    69.0943     0.0589     2.5908  0.000e+00
      0.818    26.3378 321.697745    313.276 1.7211e+02     5.7746     71.672     1.4834    69.0151     0.0569     2.5890  0.000e+00
      0.970    26.3930 321.789080    313.029 1.6929e+02     5.7547     71.496     1.5031    68.6749     0.0517     2.5926  0.000e+00
      1.084    26.4461 319.291215    310.278 1.7088e+02     5.7881     71.979     1.5535    67.8161     0.0571     2.7739  0.000e+00
      1.124    26.4708 319.108436    309.952 1.6649e+02     5.8475     72.750     1.4885    68.9275     0.0559     2.7757  0.000e+00
      1.093    26.3707 319.413131    310.852 1.8342e+02     5.9224     73.550     1.5007    68.7162     0.0546     2.7702  0.000e+00
      0.977    26.1990 319.047795    311.538 1.8281e+02     5.9972     74.247     1.5278    68.2521     0.0520     2.7794  0.000e+00
      0.818    26.0837 318.743322    311.943 3.0685e+02     6.0494     74.737     1.5077    68.5973     0.0500     2.7336  0.000e+00
      0.676    26.0185 319.047973    312.641 2.5332e+02     6.0629     74.816     1.5069    68.6105     0.0634     2.7611  0.000e+00
      0.610    26.0139 320.966981    314.549 2.6549e+02     6.0468     74.611     1.5140    68.4883     0.0678     2.7336  0.000e+00
      0.652    26.1282 322.063516    314.918 3.1811e+02     6.0275     74.527     1.5591    67.7204     0.0635     2.7483  0.000e+00
      0.769    26.2671 314.601177    306.788 2.2419e+02     6.0413     74.884     1.5284    68.2422     0.0579     2.7446  0.000e+00
      0.910    26.3715 316.885138    308.387 1.9136e+02     6.0839     75.555     1.5272    68.2637     0.0552     2.7428  0.000e+00
      1.023    26.4315 316.062788    307.228 1.6564e+02     6.1301     76.211     1.5376    68.0853     0.0489     2.7354  0.000e+00
      1.075    26.4540 320.479154    311.384 1.5445e+02     6.1655     76.684     1.5289    68.2340     0.0481     2.7428  0.000e+00
      1.061    26.4024 319.443557    310.690 1.6224e+02     6.1760     76.743     1.7477    64.6025     0.0494     2.7300  0.000e+00
      0.994    26.3059 318.316682    310.176 1.9758e+02     6.1835     76.701     1.6014    67.0086     0.0522     2.6878  0.000e+00
      0.885    26.2051 305.832739    298.598 2.2785e+02     6.1773     76.483     1.5275    68.2587     0.0468     2.6823  0.000e+00
      0.778    26.1404 317.951355    310.823 2.8099e+02     6.1362     75.887     1.5215    68.3611     0.0467     2.6805  0.000e+00
      0.707    26.1185 320.174884    313.131 2.9248e+02     6.0622     74.943     1.4901    68.8995     0.0437     2.6732  0.000e+00
      0.688    26.1689 321.088670    313.715 3.3770e+02     5.9696     73.866     1.5488    67.8954     0.0436     2.6512  0.000e+00
      0.714    26.2517 321.393206    313.505 2.6577e+02     5.9074     73.206     1.5833    67.3125     0.0558     2.6457  0.000e+00
      0.785    26.3256 321.362668    313.024 2.3750e+02     5.8816     72.984     1.6256    66.6040     0.0671     2.6549  0.000e+00
      0.880    26.3785 321.088457    312.435 2.1656e+02     5.8619     72.808     1.5339    68.1497     0.0718     2.6567  0.000e+00
      0.974    26.4111 319.595844    310.785 1.8902e+02     5.8314     72.471     1.4964    68.7905     0.0635     2.7702  0.000e+00
      1.041    26.4276 318.864807    309.975 1.9782e+02     5.7929     72.015     1.4919    68.8681     0.0569     2.7812  0.000e+00
      1.063    26.4129 318.956199    310.153 1.7510e+02     5.7462     71.416     1.4939    68.8334     0.0512     2.7702  0.000e+00
      1.032    26.2916 319.047701    310.975 1.8592e+02     5.7063     70.764     1.5157    68.4602     0.0500     2.7739  0.000e+00
      0.957    26.1655 318.895535    311.593 2.0533e+02     5.6690     70.141     1.5118    68.5262     0.0517     2.7977  0.000e+00
      0.861    26.0839 319.413422    312.597 2.2219e+02     5.6406     69.686     1.5316    68.1877     0.0497     2.7959  0.000e+00
      0.771    26.0528 322.581482    315.891 2.2246e+02     5.6287     69.502     1.5439    67.9780     0.0500     2.7940  0.000e+00
      0.716    26.1663 323.342978    315.934 2.5831e+02     5.6716     70.175     1.5486    67.8987     0.0501     2.8124  0.000e+00
      0.696    26.3272 323.434205    315.032 3.6013e+02     5.7845     71.780     1.4975    68.7723     0.0533     2.6750  0.000e+00
      0.723    26.4401 323.616879    314.518 2.8347e+02     5.9683     74.213     1.4808    69.0597     0.0507     2.6915  0.000e+00
      0.789    26.5088 323.555878    314.039 2.2129e+02     6.1643     76.745     1.5073    68.6039     0.0522     2.6714  0.000e+00
      0.865    26.5510 323.677698    313.901 1.9153e+02     6.3380     78.967     1.5246    68.3083     0.0504     2.6842  0.000e+00
      0.943    26.5756 323.738606    313.810 1.9633e+02     6.4785     80.754     1.5202    68.3826     0.0515     2.7391  0.000e+00
      1.010    26.5899 323.677662    313.664 2.2701e+02     6.5762     81.993     1.5098    68.5609     0.0520     2.7391  0.000e+00
      1.040    26.5973 323.677655    313.618 1.9159e+02     6.6395     82.793     1.5324    68.1745     0.0513     2.7373  0.000e+00
      1.033    26.6016 323.708116    313.622 1.9420e+02     6.6599     83.054     1.5303    68.2108     0.0542     2.7373  0.000e+00
      0.982    26.6033 323.708113    313.612 2.0190e+02     6.6628     83.092     1.4927    68.8549     0.0517     2.7190  0.000e+00
      0.903    26.6037 323.677644    313.580 2.0006e+02     6.6443     82.862     1.4836    69.0118     0.0570     2.7043  0.000e+00
      0.824    26.6025 323.616712    313.528 2.2681e+02     6.6201     82.559     1.4758    69.1455     0.0563     2.7116  0.000e+00
      0.770    26.5984 323.616714    313.553 2.8830e+02     6.6040     82.352     1.4797    69.0795     0.0538     2.7098  0.000e+00
      0.749    26.5923 323.616720    313.590 2.5190e+02     6.5936     82.213     1.4917    68.8714     0.0495     2.6347  0.000e+00
      0.758    26.5875 323.677657    313.679 2.3107e+02     6.5865     82.117     1.4948    68.8185     0.0535     2.6292  0.000e+00
      0.791    26.5864 323.677659    313.685 2.5713e+02     6.5819     82.058     1.5230    68.3347     0.0546     2.6201  0.000e+00
      0.844    26.5919 323.799518    313.770 2.2765e+02     6.5759     81.992     1.5656    67.6114     0.0537     2.6366  0.000e+00
      0.897    26.6004 323.829976    313.748 2.0997e+02     6.5664     81.887     1.5333    68.1596     0.0593     2.6915  0.000e+00
      0.937    26.6065 323.829971    313.710 2.1520e+02     6.5649     81.877     1.5069    68.6105     0.0603     2.6915  0.000e+00
      0.957    26.6095 323.738571    313.604 2.2945e+02     6.5578     81.792     1.4841    69.0035     0.0568     2.6787  0.000e+00
      0.953    26.6109 323.769035    313.625 2.1406e+02     6.5505     81.703     1.5043    68.6551     0.0526     2.6823  0.000e+00
      0.929    26.6117 323.738568    313.590 2.1298e+02     6.5481     81.675     1.4657    69.3206     0.0496     2.7446  0.000e+00
      0.903    26.6115 323.829965    313.680 2.1361e+02     6.5427     81.607     1.5075    68.6006     0.0453     2.7409  0.000e+00
      0.882    26.6114 323.799498    313.651 2.2219e+02     6.5421     81.599     1.5116    68.5296     0.0457     2.7446  0.000e+00
      0.874    26.6111 323.769033    313.624 1.8108e+02     6.5469     81.659     1.5235    68.3264     0.0440     2.7446  0.000e+00
      0.873    26.6110 323.738567    313.595 2.2809e+02     6.5483     81.676     1.4832    69.0184     0.0437     2.6878  0.000e+00
      0.878    26.6111 323.829964    313.683 2.6045e+02     6.5489     81.684     1.4504    69.5865     0.0457     2.6952  0.000e+00
      0.876    26.6121 323.829963    313.676 2.2161e+02     6.5466     81.656     1.4985    68.7541     0.0421     2.6787  0.000e+00
      0.877    26.6141 323.799495    313.635 2.0048e+02     6.5452     81.642     1.5576    67.7468     0.0391     2.6860  0.000e+00
      0.865    26.6154 323.829959    313.656 2.0949e+02     6.5408     81.588     1.4735    69.1852     0.0377     2.6732  0.000e+00
      0.844    26.6158 323.860424    313.683 2.4947e+02     6.5403     81.583     1.4597    69.4246     0.0367     2.6915  0.000e+00
      0.822    26.6153 323.829958    313.657 2.3846e+02     6.5443     81.633     1.4767    69.1307     0.0394     2.6823  0.000e+00
      0.809    26.6137 323.799494    313.637 2.1212e+02     6.5473     81.668     1.4567    69.4775     0.0424     2.6933  0.000e+00
      0.825    26.6107 323.829963    313.685 2.7100e+02     6.5507     81.705     1.5171    68.4354     0.0434     2.6549  0.000e+00
      0.862    26.6100 323.860431    313.719 2.2025e+02     6.5560     81.771     1.4933    68.8433     0.0432     2.6640  0.000e+00
      0.902    26.6125 323.890896    313.733 2.2380e+02     6.5589     81.811     1.4887    68.9226     0.0455     2.6549  0.000e+00
      0.937    26.6165 323.860426    313.679 2.4673e+02     6.5661     81.907     1.4761    69.1406     0.0516     2.6512  0.000e+00
      0.962    26.6201 323.921355    313.716 1.9803e+02     6.5623     81.865     1.4801    69.0712     0.0499     2.6640  0.000e+00
      0.961    26.6225 323.921353    313.702 1.9734e+02     6.5591     81.827     1.5061    68.6237     0.0475     2.6476  0.000e+00
      0.944    26.6236 323.921351    313.695 1.7483e+02     6.5587     81.825     1.4903    68.8962     0.0494     2.6714  0.000e+00
      0.908    26.6242 323.921349    313.691 2.0773e+02     6.5548     81.776     1.5136    68.4949     0.0510     2.6512  0.000e+00
      0.860    26.6238 323.860416    313.635 2.8060e+02     6.5551     81.780     1.5154    68.4651     0.0481     2.6292  0.000e+00
      0.802    26.6219 323.829951    313.617 2.3946e+02     6.5479     81.687     1.4732    69.1918     0.0449     2.6238  0.000e+00
      0.771    26.6185 323.860419    313.667 2.2133e+02     6.5397     81.580     1.4933    68.8433     0.0472     2.6366  0.000e+00
      0.773    26.6165 323.890887    313.709 1.9911e+02     6.5284     81.436     1.5154    68.4651     0.0611     2.6164  0.000e+00
      0.830    26.6162 323.921355    313.740 1.9166e+02     6.5167     81.290     1.4473    69.6409     0.0553     3.0376  0.000e+00
      0.900    26.6181 323.890890    313.699 2.1444e+02     6.5150     81.271     1.4743    69.1720     0.0496     3.0339  0.000e+00
      0.941    26.6198 323.890889    313.688 2.1071e+02     6.5184     81.315     1.5109    68.5411     0.0427     3.0284  0.000e+00
      0.941    26.6204 323.860422    313.655 1.9789e+02     6.5220     81.362     1.5162    68.4503     0.0401     3.0303  0.000e+00
      0.906    26.6203 323.829956    313.626 2.2510e+02     6.5310     81.474     1.4735    69.1852     0.0523     2.7373  0.000e+00
      0.847    26.6200 323.860420    313.658 2.1204e+02     6.5352     81.526     1.5023    68.6897     0.0557     2.7336  0.000e+00
      0.796    26.6196 323.890885    313.690 2.5578e+02     6.5407     81.593     1.5055    68.6352     0.0532     2.7464  0.000e+00
      0.793    26.6185 323.799488    313.608 2.3381e+02     6.5458     81.656     1.5254    68.2934     0.0497     2.7373  0.000e+00
      0.835    26.6156 323.890890    313.714 2.0886e+02     6.5518     81.726     1.4879    68.9375     0.0490     2.5725  0.000e+00
      0.912    26.6149 323.921359    313.748 2.0765e+02     6.5524     81.733     1.4867    68.9573     0.0494     2.5725  0.000e+00
      0.981    26.6168 323.890893    313.707 1.9126e+02     6.5521     81.731     1.5129    68.5081     0.0462     2.5688  0.000e+00
      1.020    26.6185 323.890893    313.696 1.7615e+02     6.5547     81.767     1.4634    69.3602     0.0459     2.5725  0.000e+00
      1.010    26.6189 323.860426    313.664 1.7787e+02     6.5567     81.792     1.4608    69.4065     0.0497     2.6347  0.000e+00
      0.940    26.6192 323.890890    313.692 2.0791e+02     6.5531     81.748     1.4876    68.9424     0.0486     2.6201  0.000e+00
      0.847    26.6186 323.860421    313.666 2.3418e+02     6.5521     81.735     1.4848    68.9903     0.0464     2.6292  0.000e+00
      0.758    26.6178 323.890886    313.701 2.4171e+02     6.5460     81.658     1.6159    66.7658     0.0426     2.6238  0.000e+00
      0.703    26.6157 323.799488    313.625 2.1893e+02     6.5426     81.611     1.5277    68.2554     0.0447     2.5615  0.000e+00
      0.670    26.6109 323.829958    313.684 2.3900e+02     6.5489     81.683     1.4938    68.8351     0.0439     2.5652  0.000e+00
      0.645    26.6061 323.738565    313.624 3.3752e+02     6.5468     81.650     1.4729    69.1967     0.0480     2.5670  0.000e+00
      0.648    26.6025 323.829967    313.735 2.8982e+02     6.5508     81.694     1.4866    68.9589     0.0581     2.5615  0.000e+00
      0.654    26.6016 323.829968    313.740 2.6395e+02     6.5504     81.689     1.4981    68.7624     0.0595     2.6329  0.000e+00
      0.639    26.6027 323.799500    313.704 2.3800e+02     6.5537     81.731     1.5151    68.4701     0.0584     2.6274  0.000e+00
      0.583    26.6034 323.829964    313.729 4.1238e+02     6.5457     81.632     1.4853    68.9820     0.0547     2.6201  0.000e+00
      0.483    26.6040 323.799494    313.696 3.6606e+02     6.5464     81.642     1.4719    69.2132     0.0523     2.6256  0.000e+00
      0.357    26.6051 323.829955    313.719 1.2649e+03     6.5392     81.554     1.4714    69.2215     0.0493     2.6585  0.000e+00
      0.225    26.6037 323.677624    313.580 1.2814e+03     6.5371     81.525     1.5211    68.3677     0.0449     2.6640  0.000e+00
      0.110    26.5981 323.769023    313.703 1.3113e+03     6.5430     81.591     5.7020    24.0390     0.0433     2.6549  0.000e+00
      0.024    26.5943 323.860422    313.814 1.3615e+03     6.5414     81.565    11.6292     5.4623     0.0741     2.6622  0.000e+00
     -0.043    26.5972 323.890883    313.826 1.4020e+03     6.5487     81.660    12.0148     4.9603     0.0000     2.5999  0.000e+00
     -0.118    26.6034 323.860408    313.759 1.4060e+03     6.5404     81.566     6.9046    17.7967     0.0000     2.5853  0.000e+00
     -0.228    26.6078 323.890866    313.761 1.3883e+03     6.5303     81.447     7.5523    15.1362     0.0000     2.5999  0.000e+00
     -0.317    26.6108 323.768997    313.625 1.3776e+03     6.5396     81.567    11.7508     5.2988     0.0000     2.5945  0.000e+00
     -0.313    26.6111 323.738531    313.594 1.3733e+03     6.5044     81.129     5.8518    23.1555     0.0000     1.1296  0.000e+00
     -0.312    26.6026 323.677608    313.587 1.3644e+03     6.4663     80.641     6.6165    19.1260     1.0578     1.1259  0.000e+00
     -0.311    26.5901 323.494828    313.485 1.3742e+03     6.4244     80.100     6.7115    18.6769     1.5686     1.1296  0.000e+00
     -0.281    26.5784 323.555772    313.616 1.3873e+03     6.3948     79.715     8.8179    11.0308     1.5315     1.1296  0.000e+00
     -0.230    26.5613 323.738586    313.897 1.3520e+03     6.3478     79.104     4.7594    30.4266     1.0244     0.7286  0.000e+00
     -0.183    26.5447 323.769070    314.028 1.3489e+03     6.3509     79.119     5.5257    25.1223     0.0525     0.7194  0.000e+00
     -0.134    26.5289 323.616760    313.976 1.3603e+03     6.3619     79.234     4.7337    30.6231     0.0000     0.7121  0.000e+00
     -0.122    26.5142 323.555845    314.007 1.3694e+03     6.3666     79.272     3.4379    42.3382     0.0000     0.7249  0.000e+00
     -0.117    26.5027 323.403530    313.929 1.3558e+03     6.3596     79.168     4.7085    30.8164     0.4369     2.7940  0.000e+00
     -0.074    26.4938 323.342610    313.924 1.3520e+03     6.3465     78.992     9.9014     8.4134     0.2032     2.7995  0.000e+00
      0.014    26.4873 323.281690    313.904 1.3610e+03     6.3988     79.633    14.9206     2.3989     0.1637     2.7940  0.000e+00
      0.112    26.4836 323.281696    313.927 1.3605e+03     6.4870     80.725     4.8432    29.7958     0.1283     2.7959  0.000e+00
      0.179    26.4892 323.190297    313.804 1.3524e+03     6.5552     81.583     2.0554    59.8184     0.0912     2.8673  0.000e+00
      0.238    26.5001 323.220753    313.767 1.3430e+03     6.5757     81.854     1.6314    66.5082     0.0563     2.8984  0.000e+00
      0.279    26.5130 323.403531    313.866 1.3558e+03     6.5561     81.629     1.5752    67.4495     0.0400     2.8911  0.000e+00
      0.310    26.5339 323.494906    313.827 1.3191e+03     6.4908     80.846     1.5615    67.6807     0.0416     2.8819  0.000e+00
      0.323    26.5546 323.616747    313.819 1.2792e+03     6.3986     79.728     1.5531    67.8228     0.0454     2.7739  0.000e+00
      0.343    26.5722 323.677660    313.771 1.3191e+03     6.3234     78.816     1.5388    68.0655     0.0498     2.7647  0.000e+00
      0.375    26.5858 323.616716    313.630 3.8622e+02     6.2413     77.811     1.5165    68.4453     0.0542     2.7666  0.000e+00
      0.388    26.5944 323.281588    313.252 3.6516e+02     6.1946     77.241     1.4882    68.9325     0.0533     2.7702  0.000e+00
      0.376    26.5987 323.555771    313.492 3.7942e+02     6.1750     77.002     1.5203    68.3809     0.0443     2.7574  0.000e+00
      0.366    26.6014 323.616699    313.535 3.5548e+02     6.1766     77.026     1.5176    68.4272     0.0469     2.7501  0.000e+00
      0.377    26.6031 323.494836    313.406 3.2398e+02     6.1822     77.099     1.5542    67.8046     0.0481     2.7428  0.000e+00
      0.411    26.6040 323.555767    313.460 9.5895e+02     6.1703     76.951     1.6287    66.5528     0.0542     2.7409  0.000e+00
      0.473    26.6046 323.616699    313.515 3.2386e+02     6.1426     76.607     1.5586    67.7286     0.0495     2.7354  0.000e+00
      0.549    26.6036 323.677633    313.580 2.3716e+02     6.1071     76.163     1.5248    68.3033     0.0497     2.7354  0.000e+00
      0.601    26.6036 323.555773    313.462 2.8819e+02     6.0942     76.002     1.5365    68.1051     0.0485     2.7428  0.000e+00
      0.606    26.6038 323.342515    313.255 3.1655e+02     6.0935     75.994     1.4937    68.8367     0.0492     2.7354  0.000e+00
      0.578    26.6026 323.342516    313.262 3.8304e+02     6.1122     76.225     1.4843    68.9986     0.0473     2.7373  0.000e+00
      0.550    26.6025 323.494842    313.410 3.7367e+02     6.1150     76.259     1.5330    68.1646     0.0460     2.6366  0.000e+00
      0.560    26.6016 323.433912    313.357 3.0810e+02     6.0986     76.054     1.5291    68.2306     0.0450     2.6238  0.000e+00
      0.614    26.5987 323.555778    313.492 2.4001e+02     6.0924     75.972     1.5089    68.5758     0.0443     2.6347  0.000e+00
      0.712    26.5974 323.677645    313.618 2.4453e+02     6.0557     75.514     1.5214    68.3628     0.0458     2.6238  0.000e+00
      0.811    26.5985 323.555785    313.494 2.4315e+02     6.0018     74.843     1.5322    68.1778     0.0475     2.7501  0.000e+00
      0.873    26.6009 323.342527    313.272 2.2455e+02     5.9783     74.553     1.5271    68.2653     0.0476     2.7409  0.000e+00
      0.884    26.6019 323.220666    313.148 2.2071e+02     5.9562     74.279     1.5281    68.2472     0.0496     2.7483  0.000e+00
      0.849    26.5972 323.220669    313.176 2.0839e+02     5.9446     74.128     1.5314    68.1910     0.0510     2.7446  0.000e+00
      0.796    26.5921 323.190208    313.178 2.6991e+02     5.9544     74.243     1.5190    68.4040     0.0540     2.8508  0.000e+00
      0.757    26.5893 323.281605    313.284 2.2777e+02     5.9592     74.299     1.5321    68.1795     0.0506     2.8563  0.000e+00
      0.781    26.5898 323.494862    313.487 2.0934e+02     5.9576     74.280     1.5544    67.8013     0.0446     2.8563  0.000e+00
      0.857    26.5924 323.555792    313.530 2.6929e+02     5.9305     73.946     1.5036    68.6666     0.0431     2.8526  0.000e+00
      0.950    26.5929 323.220677    313.203 2.1148e+02     5.8923     73.469     1.5023    68.6897     0.0473     2.7098  0.000e+00
      1.017    26.5934 323.159749    313.141 1.9981e+02     5.8513     72.959     1.5148    68.4751     0.0487     2.7190  0.000e+00
      1.053    26.5951 323.007424    312.983 2.1403e+02     5.8212     72.587     1.5357    68.1184     0.0446     2.7153  0.000e+00
      1.053    26.5908 323.037893    313.038 1.5181e+02     5.7896     72.187     1.4872    68.9490     0.0459     2.7226  0.000e+00
      1.048    26.5859 323.068363    313.098 1.8210e+02     5.7975     72.278     1.5001    68.7277     0.0420     2.7171  0.000e+00
      1.058    26.5832 323.068366    313.114 1.8294e+02     5.8193     72.547     1.5289    68.2340     0.0413     2.7025  0.000e+00
      1.070    26.5803 322.855117    312.925 1.9028e+02     5.8349     72.738     1.5305    68.2075     0.0473     2.7098  0.000e+00
      1.079    26.5792 322.855118    312.932 1.6102e+02     5.8429     72.836     1.4935    68.8400     0.0497     2.7043  0.000e+00
      1.083    26.5800 322.855118    312.927 1.8898e+02     5.8354     72.743     1.5434    67.9879     0.0491     2.5707  0.000e+00
      1.082    26.5763 322.794193    312.890 1.8407e+02     5.8305     72.677     1.5226    68.3413     0.0436     2.5743  0.000e+00
      1.088    26.5665 322.976990    313.127 1.8420e+02     5.8221     72.560     1.5234    68.3281     0.0417     2.5761  0.000e+00
      1.115    26.5631 322.976995    313.148 1.6831e+02     5.8212     72.544     1.5053    68.6385     0.0421     2.5798  0.000e+00
      1.171    26.5603 322.794212    312.987 1.5653e+02     5.8295     72.644     1.5221    68.3495     0.0470     2.7281  0.000e+00
      1.240    26.5615 322.763749    312.951 1.5916e+02     5.8472     72.866     1.4985    68.7541     0.0535     2.7153  0.000e+00
      1.299    26.5653 322.641889    312.809 1.4867e+02     5.8799     73.278     1.4929    68.8516     0.0587     2.7062  0.000e+00
      1.332    26.5683 322.672351    312.820 1.4228e+02     5.8896     73.404     1.4981    68.7624     0.0558     2.7098  0.000e+00
      1.331    26.5626 322.641893    312.826 1.3566e+02     5.9323     73.928     1.5273    68.2620     0.0530     2.6604  0.000e+00
      1.318    26.5457 322.733303    313.017 1.4711e+02     5.9540     74.176     1.5379    68.0804     0.0464     2.6585  0.000e+00
      1.304    26.5365 322.641920    312.984 1.4732e+02     5.9671     74.326     1.5140    68.4883     0.0462     2.6439  0.000e+00
      1.303    26.5386 322.733310    313.060 1.3571e+02     5.9610     74.253     1.5114    68.5329     0.0457     2.6585  0.000e+00
      1.344    26.5455 322.916091    313.196 1.2660e+02     5.9446     74.059     1.4910    68.8830     0.0453     2.5450  0.000e+00
      1.400    26.5530 322.733298    312.972 1.2558e+02     5.9493     74.128     1.4917    68.8714     0.0474     2.5340  0.000e+00
      1.462    26.5577 322.580974    312.796 1.1738e+02     5.9531     74.180     1.5068    68.6121     0.0415     2.5414  0.000e+00
      1.494    26.5631 322.489577    312.675 1.1554e+02     5.9669     74.360     1.4986    68.7525     0.0400     2.5267  0.000e+00
      1.497    26.5563 322.489584    312.716 1.1732e+02     5.9626     74.297     1.5256    68.2901     0.0386     2.6347  0.000e+00
      1.465    26.5379 322.580995    312.916 1.2133e+02     5.9591     74.229     1.5013    68.7063     0.0436     2.6366  0.000e+00
      1.430    26.5253 322.855186    313.259 1.2718e+02     5.9477     74.071     1.5095    68.5659     0.0511     2.6292  0.000e+00
      1.420    26.5263 322.763791    313.164 1.3585e+02     5.9307     73.860     1.4989    68.7475     0.0520     2.6201  0.000e+00
      1.452    26.5360 322.855175    313.194 1.3054e+02     5.9300     73.864     1.5552    67.7864     0.0544     2.5926  0.000e+00
      1.527    26.5475 322.855165    313.124 1.1281e+02     5.9363     73.957     1.5089    68.5758     0.0516     2.5963  0.000e+00
      1.620    26.5590 322.733298    312.936 9.9992e+01     5.9227     73.803     1.4993    68.7409     0.0523     2.6128  0.000e+00
      1.698    26.5667 322.641900    312.801 8.9695e+01     5.8977     73.502     1.4946    68.8219     0.0467     2.5999  0.000e+00
      1.737    26.5719 322.489575    312.621 8.5671e+01     5.9218     73.810     1.5135    68.4982     0.0433     2.6476  0.000e+00
      1.739    26.5757 322.550500    312.658 8.9333e+01     5.9472     74.132     1.4571    69.4692     0.0411     2.6567  0.000e+00
      1.713    26.5773 322.763746    312.855 9.2824e+01     5.9573     74.260     1.5090    68.5741     0.0403     2.6494  0.000e+00
      1.690    26.5793 323.037924    313.108 9.7733e+01     5.9504     74.175     1.5060    68.6253     0.0421     2.6494  0.000e+00
      1.676    26.5787 322.763744    312.846 9.7270e+01     5.9385     74.026     1.5271    68.2653     0.0511     2.5084  0.000e+00
      1.673    26.5788 322.794208    312.875 9.4421e+01     5.9314     73.939     1.5025    68.6864     0.0587     2.5157  0.000e+00
      1.695    26.5835 323.281639    313.319 9.1657e+01     5.9177     73.774     1.5048    68.6468     0.0546     2.5047  0.000e+00
      1.743    26.5886 323.403496    313.406 9.2336e+01     5.9000     73.560     1.5163    68.4486     0.0552     2.5230  0.000e+00
      1.803    26.5914 323.403495    313.389 8.6049e+01     5.8754     73.257     1.5129    68.5081     0.0504     2.5414  0.000e+00
      1.865    26.5927 323.403496    313.381 7.8652e+01     5.8538     72.990     1.5211    68.3677     0.0443     2.5432  0.000e+00
      1.912    26.5945 323.220704    313.193 7.1853e+01     5.7986     72.304     1.5160    68.4552     0.0544     2.5377  0.000e+00
      1.933    26.5951 323.068380    313.042 6.5757e+01     5.7552     71.763     1.4992    68.7426     0.0553     2.5359  0.000e+00
      1.936    26.5963 323.342564    313.300 7.0625e+01     5.7052     71.141     1.4825    69.0299     0.0510     2.6915  0.000e+00
      1.932    26.5993 323.403491    313.341 7.6780e+01     5.6531     70.495     1.4603    69.4147     0.0483     2.6878  0.000e+00
      1.933    26.6012 323.494885    313.418 7.8722e+01     5.6165     70.041     1.5176    68.4272     0.0467     2.6842  0.000e+00
      1.946    26.5999 323.342560    313.278 7.8307e+01     5.5944     69.764     1.5480    67.9086     0.0493     2.6823  0.000e+00
      1.963    26.5959 323.433961    313.391 7.1904e+01     5.5739     69.504     1.4865    68.9606     0.0480     2.6329  0.000e+00
      1.982    26.5957 323.494892    313.451 6.7789e+01     5.5661     69.406     1.4985    68.7541     0.0429     2.6292  0.000e+00
      2.016    26.5985 323.494890    313.435 6.5965e+01     5.5682     69.436     1.5151    68.4701     0.0398     2.6347  0.000e+00
      2.060    26.5975 323.616754    313.558 6.2201e+01     5.5875     69.676     1.5104    68.5510     0.0401     2.6201  0.000e+00
      2.115    26.5993 323.677686    313.607 5.8972e+01     5.6295     70.200     1.4618    69.3883     0.0433     2.6823  0.000e+00
      2.172    26.5996 323.616756    313.546 5.6414e+01     5.6685     70.688     1.4706    69.2364     0.0607     2.6842  0.000e+00
      2.200    26.5987 323.616758    313.551 5.6018e+01     5.6974     71.047     1.4767    69.1307     0.0611     2.6787  0.000e+00
      2.196    26.5992 323.494895    313.430 5.7943e+01     5.7355     71.523     1.4870    68.9523     0.0587     2.6897  0.000e+00
      2.166    26.5990 323.555825    313.491 5.9055e+01     5.7725     71.984     1.4995    68.7376     0.0523     2.5395  0.000e+00
      2.123    26.5968 323.616757    313.563 6.3741e+01     5.7918     72.222     1.4953    68.8103     0.0468     2.5505  0.000e+00
      2.076    26.5961 323.677688    313.626 6.5884e+01     5.7945     72.254     1.5200    68.3859     0.0439     2.5432  0.000e+00
      2.070    26.5954 323.677688    313.630 6.2081e+01     5.7783     72.051     1.4944    68.8252     0.0459     2.5414  0.000e+00
      2.123    26.5961 323.708155    313.655 5.7314e+01     5.7592     71.814     1.5047    68.6485     0.0435     2.8673  0.000e+00
      2.231    26.5973 323.769088    313.707 5.4185e+01     5.7636     71.870     1.5049    68.6452     0.0404     2.8471  0.000e+00
      2.361    26.5994 323.738624    313.665 4.7368e+01     5.8197     72.574     1.4804    69.0663     0.0446     2.8563  0.000e+00
      2.461    26.6035 323.769089    313.670 4.2530e+01     5.9038     73.628     1.5162    68.4519     0.0469     2.8673  0.000e+00
      2.513    26.6078 323.799552    313.673 4.0634e+01     6.0124     74.988     1.5340    68.1464     0.0452     2.7684  0.000e+00
      2.503    26.6111 323.830014    313.683 4.1736e+01     6.1125     76.240     1.5156    68.4618     0.0459     2.7647  0.000e+00
      2.432    26.6135 323.799543    313.638 4.5745e+01     6.1899     77.209     1.5141    68.4866     0.0443     2.7611  0.000e+00
      2.339    26.6157 323.890936    313.713 4.9065e+01     6.2517     77.983     1.5042    68.6567     0.0458     2.7757  0.000e+00
      2.264    26.6173 323.860466    313.674 5.6156e+01     6.2860     78.414     1.5015    68.7030     0.0486     2.7483  0.000e+00
      2.240    26.6181 323.829998    313.640 5.8404e+01     6.3078     78.686     1.5031    68.6749     0.0478     2.7464  0.000e+00
      2.279    26.6161 323.890934    313.711 5.3025e+01     6.3258     78.908     1.5275    68.2587     0.0459     2.7428  0.000e+00
      2.368    26.6127 323.799542    313.643 4.6435e+01     6.3361     79.032     1.5308    68.2026     0.0435     2.7354  0.000e+00
      2.480    26.6106 323.890946    313.745 4.0534e+01     6.3495     79.196     1.5323    68.1762     0.0421     2.6640  0.000e+00
      2.586    26.6130 323.860480    313.701 3.7650e+01     6.3730     79.493     1.5429    67.9961     0.0416     2.6549  0.000e+00
      2.660    26.6172 323.890944    313.704 3.5194e+01     6.3633     79.377     1.5457    67.9483     0.0408     2.6512  0.000e+00
      2.700    26.6213 323.860475    313.650 3.4379e+01     6.3573     79.308     1.5517    67.8459     0.0411     2.6567  0.000e+00
      2.701    26.6237 323.921404    313.695 3.5744e+01     6.3572     79.311     1.5165    68.4453     0.0475     2.6512  0.000e+00
      2.656    26.6254 323.921401    313.684 3.8556e+01     6.3566     79.306     1.5197    68.3908     0.0500     2.6604  0.000e+00
      2.570    26.6260 323.921398    313.680 4.0784e+01     6.3478     79.197     1.5330    68.1646     0.0479     2.6695  0.000e+00
      2.489    26.6262 323.982327    313.738 4.4404e+01     6.3419     79.123     1.5538    67.8112     0.0498     2.6640  0.000e+00
      2.450    26.6259 323.890928    313.652 4.5850e+01     6.3472     79.189     1.5137    68.4932     0.0612     2.7062  0.000e+00
      2.484    26.6245 323.890931    313.660 4.3468e+01     6.3595     79.340     1.5104    68.5510     0.0559     2.7208  0.000e+00
      2.585    26.6230 323.921402    313.699 3.9000e+01     6.3608     79.354     1.5411    68.0259     0.0491     2.7025  0.000e+00
      2.722    26.6232 323.921406    313.698 3.3495e+01     6.3822     79.621     1.5608    67.6923     0.0481     2.7135  0.000e+00
      2.845    26.6245 323.921408    313.690 2.9644e+01     6.3957     79.792     1.5196    68.3925     0.0473     2.6476  0.000e+00
      2.928    26.6262 323.921409    313.679 2.7851e+01     6.4010     79.861     1.5092    68.5708     0.0446     2.6567  0.000e+00
      2.944    26.6270 323.921408    313.674 2.8232e+01     6.3916     79.744     1.5479    67.9103     0.0431     2.6549  0.000e+00
      2.889    26.6264 323.921407    313.678 3.0315e+01     6.3838     79.647     1.5378    68.0820     0.0440     2.6476  0.000e+00
      2.808    26.6249 323.982339    313.746 3.2829e+01     6.3584     79.327     1.5881    67.2315     0.0436     2.7208  0.000e+00
      2.742    26.6244 323.921405    313.690 3.3583e+01     6.3463     79.175     1.5364    68.1068     0.0421     2.7135  0.000e+00
      2.704    26.6237 323.890939    313.665 3.4440e+01     6.3420     79.121     1.5326    68.1712     0.0410     2.7080  0.000e+00
      2.709    26.6217 323.860475    313.648 3.4953e+01     6.3493     79.209     1.5213    68.3644     0.0431     2.7171  0.000e+00
      2.741    26.6195 323.921410    313.720 3.4549e+01     6.3516     79.234     1.5171    68.4354     0.0447     2.5707  0.000e+00
      2.803    26.6189 323.921413    313.723 3.2892e+01     6.3439     79.138     1.5052    68.6402     0.0457     2.5707  0.000e+00
      2.881    26.6193 323.921414    313.721 2.9954e+01     6.3333     79.006     1.5028    68.6815     0.0481     2.5707  0.000e+00
      2.977    26.6203 323.921416    313.715 2.7568e+01     6.3430     79.128     1.5046    68.6501     0.0465     2.5761  0.000e+00
      3.062    26.6209 323.921418    313.712 2.6134e+01     6.3638     79.389     1.5672    67.5833     0.0452     2.6274  0.000e+00
      3.108    26.6208 323.860488    313.653 2.5162e+01     6.3798     79.588     1.5354    68.1233     0.0420     2.6256  0.000e+00
      3.117    26.6210 323.982352    313.770 2.4683e+01     6.3879     79.689     1.5311    68.1960     0.0416     2.6292  0.000e+00
      3.091    26.6215 323.982351    313.767 2.4700e+01     6.3776     79.561     1.5359    68.1150     0.0433     2.6274  0.000e+00
      3.052    26.6216 323.921417    313.707 2.4818e+01     6.3729     79.504     1.4982    68.7591     0.0489     2.6201  0.000e+00
      3.035    26.6213 323.890951    313.680 2.5429e+01     6.3632     79.381     1.5082    68.5890     0.0470     2.5816  0.000e+00
      3.032    26.6206 323.860486    313.655 2.5578e+01     6.3665     79.422     1.5278    68.2521     0.0493     2.5761  0.000e+00
      3.051    26.6202 323.982351    313.774 2.5367e+01     6.3681     79.442     1.5364    68.1068     0.0480     2.5816  0.000e+00
      3.088    26.6201 323.921420    313.716 2.4897e+01     6.3711     79.479     1.5809    67.3521     0.0453     2.5615  0.000e+00
      3.130    26.6207 323.982353    313.772 2.4132e+01     6.3690     79.454     1.5687    67.5585     0.0468     2.6311  0.000e+00
      3.169    26.6219 323.982353    313.765 2.3983e+01     6.3725     79.499     1.5238    68.3215     0.0467     2.6238  0.000e+00
      3.187    26.6236 323.982351    313.754 2.3869e+01     6.3828     79.630     1.5169    68.4387     0.0486     2.6274  0.000e+00
      3.198    26.6249 323.982350    313.746 2.3522e+01     6.3894     79.714     1.4864    68.9622     0.0484     2.6274  0.000e+00
      3.213    26.6254 323.982350    313.743 2.2795e+01     6.3781     79.574     1.5215    68.3611     0.0462     2.6311  0.000e+00
      3.260    26.6252 323.982352    313.744 2.1115e+01     6.3673     79.438     1.5367    68.1018     0.0424     2.6292  0.000e+00
      3.339    26.6250 323.921422    313.687 2.0122e+01     6.3732     79.512     1.5381    68.0771     0.0404     2.6329  0.000e+00
      3.434    26.6250 323.921425    313.687 1.8318e+01     6.3789     79.583     1.5221    68.3495     0.0379     2.6238  0.000e+00
      3.519    26.6262 323.982359    313.738 1.6584e+01     6.3829     79.635     1.5364    68.1068     0.0379     2.6823  0.000e+00
      3.558    26.6280 323.982358    313.727 1.5898e+01     6.3873     79.692     1.5231    68.3330     0.0652     2.6787  0.000e+00
      3.539    26.6295 324.043288    313.777 1.6348e+01     6.3782     79.580     1.5370    68.0969     0.0636     2.6988  0.000e+00
      3.459    26.6306 324.043285    313.770 1.8064e+01     6.3687     79.463     1.5284    68.2422     0.0534     2.6878  0.000e+00
      3.370    26.6304 323.982350    313.712 2.0243e+01     6.3612     79.370     1.5537    67.8128     0.0463     2.5926  0.000e+00
      3.318    26.6289 323.982350    313.722 2.1321e+01     6.3660     79.428     1.5687    67.5585     0.0522     2.6018  0.000e+00
      3.324    26.6265 323.982353    313.736 2.1000e+01     6.3825     79.631     1.5454    67.9532     0.0529     2.5981  0.000e+00
      3.390    26.6239 323.982357    313.752 1.9155e+01     6.3987     79.829     1.5170    68.4371     0.0520     2.5999  0.000e+00
      3.509    26.6238 324.043293    313.812 1.6699e+01     6.4130     80.007     1.5357    68.1184     0.0485     2.7153  0.000e+00
      3.652    26.6254 324.043296    313.802 1.5523e+01     6.4338     80.269     1.5584    67.7336     0.0509     2.7153  0.000e+00
      3.788    26.6281 324.043297    313.786 1.3677e+01     6.4518     80.497     1.5434    67.9879     0.0513     2.7153  0.000e+00
      3.878    26.6300 323.982366    313.715 1.2532e+01     6.4635     80.645     1.5300    68.2158     0.0519     2.7098  0.000e+00
      3.911    26.6316 324.043297    313.765 1.2228e+01     6.4577     80.576     1.5041    68.6584     0.0525     2.6787  0.000e+00
      3.891    26.6325 323.982364    313.700 1.2619e+01     6.4461     80.432     1.5331    68.1629     0.0574     2.6842  0.000e+00
      3.833    26.6332 324.043293    313.755 1.3321e+01     6.4230     80.145     1.5020    68.6947     0.0546     2.6860  0.000e+00
      3.768    26.6328 323.982359    313.698 1.4057e+01     6.4026     79.890     1.5489    67.8938     0.0491     2.6878  0.000e+00
      3.706    26.6318 323.982359    313.704 1.4836e+01     6.3908     79.741     1.5324    68.1745     0.0467     2.6256  0.000e+00
      3.666    26.6306 323.982359    313.711 1.5327e+01     6.3849     79.666     1.5263    68.2785     0.0416     2.6219  0.000e+00
      3.673    26.6284 323.982361    313.725 1.4808e+01     6.3870     79.689     1.4915    68.8747     0.0390     2.6219  0.000e+00
      3.736    26.6272 323.982364    313.732 1.3634e+01     6.3940     79.774     1.5136    68.4949     0.0390     2.6311  0.000e+00
      3.850    26.6276 324.104232    313.848 1.2940e+01     6.4063     79.929     1.5386    68.0688     0.0440     2.7171  0.000e+00
      3.983    26.6302 324.104233    313.832 1.1591e+01     6.4222     80.131     1.5178    68.4239     0.0507     2.7153  0.000e+00
      4.106    26.6333 324.043301    313.754 1.0433e+01     6.4456     80.427     1.5553    67.7848     0.0499     2.7171  0.000e+00
      4.193    26.6355 324.043302    313.741 9.7514e+00     6.4635     80.654     1.5710    67.5205     0.0460     2.7025  0.000e+00
      4.223    26.6361 324.104235    313.796 9.6089e+00     6.4718     80.758     1.5729    67.4875     0.0439     2.6878  0.000e+00
      4.202    26.6361 324.043301    313.737 9.9383e+00     6.4773     80.827     1.5833    67.3125     0.0454     2.6897  0.000e+00
      4.149    26.6361 324.043300    313.737 1.0522e+01     6.4816     80.880     1.5228    68.3380     0.0584     2.6823  0.000e+00
      4.086    26.6358 323.982366    313.680 1.1069e+01     6.4769     80.821     1.5604    67.6989     0.0582     2.6897  0.000e+00
      4.040    26.6351 324.043298    313.743 1.1371e+01     6.4718     80.757     1.5442    67.9730     0.0540     2.7153  0.000e+00
      4.028    26.6342 324.104231    313.808 1.1203e+01     6.4716     80.753     1.5685    67.5618     0.0490     2.7171  0.000e+00
      4.074    26.6330 323.982369    313.697 1.0481e+01     6.4719     80.754     1.5619    67.6741     0.0491     2.7263  0.000e+00
      4.163    26.6326 324.043304    313.759 1.0066e+01     6.4737     80.776     1.5490    67.8921     0.0481     2.7135  0.000e+00
      4.264    26.6337 324.104238    313.811 9.2443e+00     6.4786     80.839     1.5667    67.5932     0.0466     2.7208  0.000e+00
      4.360    26.6353 324.104240    313.801 8.5374e+00     6.4776     80.829     1.5698    67.5404     0.0452     2.7208  0.000e+00
      4.432    26.6360 324.043309    313.738 8.0055e+00     6.4739     80.785     1.5282    68.2455     0.0462     2.7153  0.000e+00
      4.474    26.6364 324.104242    313.794 7.7190e+00     6.4658     80.683     1.5561    67.7716     0.0482     2.7153  0.000e+00
      4.484    26.6359 324.043310    313.738 7.7341e+00     6.4638     80.658     1.5615    67.6807     0.0489     2.6366  0.000e+00
      4.476    26.6351 324.043311    313.743 7.8282e+00     6.4686     80.717     1.5749    67.4545     0.0586     2.6329  0.000e+00
      4.459    26.6341 323.982379    313.690 7.8812e+00     6.4651     80.672     1.5578    67.7435     0.0622     2.6201  0.000e+00
      4.450    26.6332 324.043312    313.755 7.9502e+00     6.4666     80.689     1.5696    67.5437     0.0758     2.6311  0.000e+00
      4.443    26.6327 324.043312    313.758 8.0369e+00     6.4764     80.811     1.5585    67.7319     0.0661     2.6512  0.000e+00
      4.442    26.6326 324.043312    313.759 7.8925e+00     6.4796     80.850     1.5648    67.6246     0.0571     2.6640  0.000e+00
      4.464    26.6331 324.104245    313.815 7.7810e+00     6.4802     80.859     1.5762    67.4314     0.0526     2.6457  0.000e+00
      4.515    26.6339 324.043313    313.751 7.4864e+00     6.4684     80.712     1.5160    68.4552     0.0476     2.6549  0.000e+00
      4.587    26.6339 324.104248    313.810 7.0268e+00     6.4528     80.518     1.5043    68.6551     0.0468     2.6604  0.000e+00
      4.673    26.6349 323.982385    313.685 6.5330e+00     6.4378     80.332     1.5302    68.2125     0.0512     2.6585  0.000e+00
      4.740    26.6355 324.104251    313.800 6.1751e+00     6.4170     80.074     1.5503    67.8706     0.0523     2.6567  0.000e+00
      4.771    26.6364 324.043318    313.735 6.1082e+00     6.4002     79.866     1.5431    67.9928     0.0544     2.6512  0.000e+00
      4.763    26.6362 324.104251    313.796 6.2304e+00     6.3775     79.582     1.5500    67.8756     0.0494     2.6219  0.000e+00
      4.748    26.6354 324.104251    313.800 6.3255e+00     6.3688     79.471     1.5442    67.9730     0.0463     2.6274  0.000e+00
      4.745    26.6350 324.104252    313.803 6.3109e+00     6.3628     79.397     1.5526    67.8310     0.0429     2.6274  0.000e+00
      4.763    26.6346 324.104253    313.805 6.1905e+00     6.3739     79.535     1.5516    67.8475     0.0423     2.6329  0.000e+00
      4.805    26.6341 324.043322    313.749 5.9099e+00     6.3983     79.838     1.5641    67.6361     0.0410     2.7098  0.000e+00
      4.856    26.6335 324.043324    313.753 5.7681e+00     6.4149     80.045     1.5373    68.0903     0.0478     2.7098  0.000e+00
      4.903    26.6334 324.104258    313.813 5.5073e+00     6.4275     80.201     1.5593    67.7171     0.0529     2.7190  0.000e+00
      4.933    26.6335 324.043326    313.753 5.3072e+00     6.4298     80.230     1.6002    67.0284     0.0546     2.7135  0.000e+00
      4.953    26.6330 323.921463    313.638 5.2356e+00     6.4309     80.244     1.5437    67.9829     0.0578     2.6842  0.000e+00
      4.966    26.6324 324.043329    313.760 5.1621e+00     6.4318     80.253     1.5589    67.7237     0.0552     2.6915  0.000e+00
      4.971    26.6316 324.043330    313.765 5.1437e+00     6.4416     80.374     1.5306    68.2059     0.0510     2.6878  0.000e+00
      4.968    26.6309 323.982398    313.709 5.1704e+00     6.4510     80.492     1.5217    68.3578     0.0461     2.6897  0.000e+00
      4.974    26.6305 323.982398    313.712 5.1676e+00     6.4532     80.518     1.5406    68.0341     0.0426     2.6897  0.000e+00
      4.983    26.6299 323.982399    313.716 5.1501e+00     6.4546     80.535     1.5575    67.7484     0.0387     2.6823  0.000e+00
      5.002    26.6296 324.043333    313.776 5.0842e+00     6.4617     80.623     1.5585    67.7319     0.0371     2.6915  0.000e+00
      5.039    26.6292 323.982402    313.720 4.9512e+00     6.4628     80.635     1.5299    68.2174     0.0362     2.6988  0.000e+00
      5.088    26.6291 324.043336    313.779 4.8382e+00     6.4674     80.694     1.5495    67.8839     0.0388     2.7226  0.000e+00
      5.142    26.6297 323.982404    313.717 4.6254e+00     6.4695     80.720     1.5252    68.2967     0.0397     2.7153  0.000e+00
      5.168    26.6307 323.982404    313.711 4.5115e+00     6.4767     80.811     1.5328    68.1679     0.0453     2.7190  0.000e+00
      5.175    26.6309 323.982404    313.709 4.4969e+00     6.4800     80.853     1.5448    67.9631     0.0446     2.7190  0.000e+00
      5.176    26.6307 323.982404    313.711 4.4945e+00     6.4717     80.749     1.5469    67.9284     0.0421     5.6633  0.000e+00
      5.187    26.6302 324.043338    313.773 4.4857e+00     6.4695     80.721     1.5610    67.6890     0.0440     5.6597  0.000e+00
